## SPECTRUM TYPE:
LCE

## DATE:
18/11/2025

## COMMENTS:
xime muestra

## NUMBER OF SPECTRUM:
1

## ELLIPSOMETRIC CONFIGURATION:
0.00 ø :Modulator
+45.00 øAnalyser

## UNIT:
nm

## SPOT SIZE:



# SPECTRUM:
1

# CAPTION:


# START TIME:
14:32:35

# END TIME:
14:32:35

# THETA ANGLE:
0.00 ø

# INCIDENCE ANGLE:
65.00 ø

# ACCUMULATION NUMBER:
19

# ELLIPSOMETRIC CONFIGURATION:
0.00 ø :Modulator
+45.00 øAnalyser

# INTEGRATION TIME:
12 ms

# FIRST POINT:
997.66 nm

# LAST POINT:
439.96 nm

# INCREMENT:
0.00 nm

# NUMBER OF POINTS:
200

# DATA:
nm Psi Delta Ic Is Reflectance Transmission IcPrim IntegrationTime IntensityMax Polarization PolarizationGen Mueller11 Mueller12 Mueller13 Mueller14 Mueller21 Mueller22 Mueller23 Mueller24 Mueller31 Mueller32 Mueller33 Mueller34 Mueller41 Mueller42 Mueller43 Mueller44 eV 
997.6623 38.461 133.916 -0.65377 0.67898 0.990 0.0000 0.21898 12.0000 4.79 0.9361 0.9367 1.0000 -0.1978 -0.0292 0.0253 -0.2185 0.9011 0.0391 -0.0062 0.0167 0.0352 -0.6038 0.6454 0.0060 0.0115 -0.6454 -0.6391 1.242747 
994.8812 38.505 133.779 -0.64951 0.67780 1.010 0.0000 0.21655 12.0000 5.18 0.9380 0.9387 1.0000 -0.1979 -0.0286 0.0219 -0.2156 0.9094 0.0400 -0.0073 0.0181 0.0367 -0.6022 0.6526 -0.0030 0.0027 -0.6415 -0.6380 1.246221 
992.4958 38.530 133.674 -0.64690 0.67756 1.019 0.0000 0.21526 12.0000 5.32 0.9401 0.9407 1.0000 -0.1982 -0.0277 0.0193 -0.2142 0.9157 0.0409 -0.0077 0.0188 0.0371 -0.6019 0.6574 -0.0083 -0.0025 -0.6407 -0.6374 1.249216 
990.1091 38.542 133.580 -0.64510 0.67788 0.944 0.0000 0.21458 12.0000 5.47 0.9421 0.9428 1.0000 -0.1987 -0.0266 0.0172 -0.2135 0.9212 0.0418 -0.0076 0.0189 0.0369 -0.6024 0.6605 -0.0114 -0.0055 -0.6419 -0.6369 1.252228 
987.3229 38.576 133.405 -0.64482 0.68177 0.974 0.0000 0.21403 12.0000 5.74 0.9471 0.9477 1.0000 -0.1995 -0.0233 0.0137 -0.2134 0.9292 0.0434 -0.0059 0.0173 0.0341 -0.6071 0.6632 -0.0100 -0.0006 -0.6520 -0.6369 1.255761 
984.9332 38.506 133.460 -0.64313 0.67866 1.011 0.0000 0.21565 12.0000 6.01 0.9451 0.9457 1.0000 -0.1993 -0.0221 0.0133 -0.2164 0.9280 0.0470 -0.0070 0.0185 0.0354 -0.6058 0.6567 -0.0101 -0.0085 -0.6518 -0.6341 1.258808 
982.5420 38.418 133.436 -0.64451 0.68069 0.979 0.0000 0.21924 12.0000 6.10 0.9441 0.9446 1.0000 -0.2027 -0.0240 0.0136 -0.2189 0.9228 0.0427 -0.0038 0.0160 0.0322 -0.6084 0.6541 -0.0082 -0.0046 -0.6547 -0.6308 1.261872 
979.7505 38.481 133.189 -0.64133 0.68320 0.986 0.0000 0.21700 12.0000 6.30 0.9451 0.9455 1.0000 -0.2033 -0.0249 0.0152 -0.2146 0.9258 0.0346 -0.0004 0.0135 0.0337 -0.6057 0.6569 -0.0020 0.0017 -0.6587 -0.6294 1.265467 
977.3562 38.494 133.162 -0.64045 0.68292 0.999 0.0000 0.21635 12.0000 6.56 0.9452 0.9456 1.0000 -0.2031 -0.0215 0.0176 -0.2138 0.9268 0.0341 -0.0020 0.0154 0.0353 -0.6032 0.6551 -0.0012 0.0013 -0.6607 -0.6308 1.268567 
974.9604 38.412 133.026 -0.63981 0.68549 0.994 0.0000 0.21952 12.0000 7.13 0.9425 0.9430 1.0000 -0.2044 -0.0182 0.0179 -0.2169 0.9192 0.0332 -0.0007 0.0148 0.0348 -0.5995 0.6537 -0.0024 0.0003 -0.6619 -0.6285 1.271684 
972.1634 38.428 132.860 -0.64006 0.68974 0.986 0.0000 0.21973 12.0000 7.22 0.9453 0.9458 1.0000 -0.2041 -0.0170 0.0210 -0.2182 0.9217 0.0328 0.0025 0.0130 0.0359 -0.5979 0.6582 0.0006 0.0056 -0.6673 -0.6321 1.275343 
969.7643 38.395 132.989 -0.63879 0.68528 0.983 0.0000 0.21990 12.0000 7.51 0.9409 0.9413 1.0000 -0.2064 -0.0214 0.0181 -0.2151 0.9165 0.0291 -0.0042 0.0172 0.0317 -0.5975 0.6557 0.0037 0.0067 -0.6577 -0.6267 1.278498 
967.3636 38.394 132.958 -0.63856 0.68578 0.997 0.0000 0.21999 12.0000 7.98 0.9394 0.9398 1.0000 -0.2066 -0.0221 0.0177 -0.2143 0.9132 0.0282 -0.0026 0.0157 0.0289 -0.5966 0.6586 0.0042 0.0095 -0.6534 -0.6251 1.281671 
964.5610 38.444 132.872 -0.63962 0.68897 0.997 0.0000 0.21897 12.0000 8.05 0.9436 0.9440 1.0000 -0.2066 -0.0228 0.0181 -0.2136 0.9192 0.0259 -0.0025 0.0146 0.0305 -0.5983 0.6657 0.0039 0.0126 -0.6566 -0.6292 1.285395 
962.1569 38.465 132.832 -0.64119 0.69166 0.983 0.0000 0.21897 12.0000 8.30 0.9463 0.9466 1.0000 -0.2075 -0.0230 0.0176 -0.2133 0.9218 0.0276 -0.0035 0.0136 0.0278 -0.6005 0.6702 0.0049 0.0162 -0.6590 -0.6318 1.288607 
959.7513 38.547 132.619 -0.63924 0.69471 1.000 0.0000 0.21634 12.0000 8.73 0.9471 0.9475 1.0000 -0.2045 -0.0242 0.0139 -0.2116 0.9232 0.0277 -0.0041 0.0155 0.0298 -0.6003 0.6735 0.0040 0.0171 -0.6625 -0.6291 1.291837 
956.9427 38.514 132.725 -0.63984 0.69279 0.985 0.0000 0.21725 12.0000 9.06 0.9454 0.9458 1.0000 -0.2033 -0.0282 0.0130 -0.2139 0.9205 0.0306 -0.0062 0.0199 0.0348 -0.6031 0.6723 0.0004 0.0102 -0.6582 -0.6257 1.295628 
954.5336 38.488 132.852 -0.64105 0.69101 1.026 0.0000 0.21801 12.0000 9.53 0.9455 0.9460 1.0000 -0.2043 -0.0308 0.0130 -0.2145 0.9211 0.0294 -0.0074 0.0208 0.0337 -0.6061 0.6716 -0.0038 0.0044 -0.6559 -0.6254 1.298898 
952.1228 38.495 132.828 -0.64117 0.69171 1.008 0.0000 0.21790 12.0000 9.63 0.9460 0.9465 1.0000 -0.2042 -0.0330 0.0127 -0.2146 0.9216 0.0290 -0.0053 0.0181 0.0328 -0.6085 0.6722 -0.0067 0.0023 -0.6570 -0.6235 1.302187 
949.3082 38.463 132.640 -0.64139 0.69653 1.005 0.0000 0.21989 12.0000 9.63 0.9479 0.9484 1.0000 -0.2061 -0.0327 0.0152 -0.2165 0.9216 0.0286 -0.0007 0.0199 0.0344 -0.6090 0.6772 -0.0071 0.0023 -0.6612 -0.6235 1.306048 
946.8937 38.439 132.577 -0.64138 0.69805 1.003 0.0000 0.22099 12.0000 10.18 0.9482 0.9488 1.0000 -0.2070 -0.0308 0.0158 -0.2175 0.9210 0.0295 -0.0011 0.0234 0.0374 -0.6087 0.6775 -0.0083 -0.0001 -0.6634 -0.6234 1.309378 
944.4776 38.344 132.396 -0.63951 0.70044 1.003 0.0000 0.22443 12.0000 10.23 0.9459 0.9464 1.0000 -0.2112 -0.0309 0.0153 -0.2186 0.9149 0.0274 -0.0009 0.0246 0.0358 -0.6049 0.6777 -0.0087 0.0001 -0.6636 -0.6198 1.312728 
941.6566 38.319 132.267 -0.63903 0.70311 1.018 0.0000 0.22568 12.0000 10.71 0.9481 0.9485 1.0000 -0.2134 -0.0291 0.0150 -0.2193 0.9175 0.0281 0.0012 0.0225 0.0333 -0.6050 0.6815 -0.0072 0.0054 -0.6667 -0.6203 1.316660 
939.2368 38.293 132.142 -0.63719 0.70415 1.014 0.0000 0.22647 12.0000 10.91 0.9501 0.9505 1.0000 -0.2163 -0.0283 0.0157 -0.2190 0.9220 0.0277 0.0008 0.0213 0.0286 -0.6042 0.6843 -0.0050 0.0065 -0.6690 -0.6205 1.320052 
936.4113 38.224 131.934 -0.63593 0.70791 1.024 0.0000 0.22936 12.0000 11.44 0.9501 0.9504 1.0000 -0.2185 -0.0255 0.0159 -0.2218 0.9194 0.0281 0.0036 0.0172 0.0237 -0.6014 0.6855 -0.0040 0.0081 -0.6733 -0.6192 1.324036 
933.9876 38.240 131.742 -0.63272 0.70909 1.004 0.0000 0.22850 12.0000 11.56 0.9512 0.9515 1.0000 -0.2193 -0.0242 0.0149 -0.2201 0.9232 0.0263 0.0005 0.0142 0.0212 -0.5987 0.6870 -0.0023 0.0097 -0.6767 -0.6182 1.327471 
931.5621 38.245 131.480 -0.63039 0.71304 0.997 0.0000 0.22868 12.0000 11.76 0.9530 0.9533 1.0000 -0.2199 -0.0222 0.0131 -0.2204 0.9255 0.0248 -0.0007 0.0119 0.0198 -0.5977 0.6924 -0.0014 0.0126 -0.6805 -0.6161 1.330928 
928.7301 38.278 131.131 -0.62603 0.71684 1.021 0.0000 0.22750 12.0000 12.45 0.9535 0.9537 1.0000 -0.2186 -0.0214 0.0126 -0.2197 0.9267 0.0231 0.0001 0.0123 0.0201 -0.5936 0.6959 -0.0006 0.0121 -0.6852 -0.6126 1.334986 
926.3006 38.297 131.010 -0.62352 0.71702 1.026 0.0000 0.22646 12.0000 12.37 0.9548 0.9551 1.0000 -0.2178 -0.0211 0.0133 -0.2196 0.9312 0.0235 -0.0002 0.0120 0.0220 -0.5929 0.6970 -0.0014 0.0099 -0.6877 -0.6113 1.338488 
923.8693 38.295 131.034 -0.62225 0.71497 1.019 0.0000 0.22599 12.0000 13.00 0.9544 0.9546 1.0000 -0.2167 -0.0218 0.0147 -0.2201 0.9327 0.0234 -0.0008 0.0113 0.0217 -0.5920 0.6956 -0.0020 0.0064 -0.6862 -0.6106 1.342010 
921.0304 38.280 130.908 -0.61956 0.71503 1.017 0.0000 0.22610 12.0000 13.10 0.9544 0.9546 1.0000 -0.2175 -0.0209 0.0147 -0.2199 0.9343 0.0228 -0.0042 0.0105 0.0208 -0.5900 0.6963 -0.0028 0.0017 -0.6867 -0.6084 1.346147 
918.5950 38.283 130.828 -0.61931 0.71676 1.008 0.0000 0.22626 12.0000 13.45 0.9547 0.9549 1.0000 -0.2169 -0.0203 0.0161 -0.2207 0.9338 0.0215 -0.0042 0.0123 0.0238 -0.5903 0.6968 -0.0026 0.0005 -0.6893 -0.6073 1.349716 
916.1577 38.290 130.595 -0.61516 0.71784 1.009 0.0000 0.22556 12.0000 12.78 0.9531 0.9533 1.0000 -0.2163 -0.0207 0.0159 -0.2196 0.9324 0.0198 -0.0068 0.0134 0.0258 -0.5849 0.6983 -0.0025 0.0006 -0.6889 -0.6038 1.353306 
913.3118 38.312 130.391 -0.61184 0.71915 1.020 0.0000 0.22454 12.0000 14.03 0.9526 0.9529 1.0000 -0.2153 -0.0203 0.0167 -0.2186 0.9328 0.0201 -0.0081 0.0147 0.0279 -0.5814 0.7008 -0.0011 0.0036 -0.6892 -0.6011 1.357523 
910.8703 38.321 130.410 -0.61184 0.71865 1.006 0.0000 0.22410 12.0000 14.20 0.9531 0.9535 1.0000 -0.2153 -0.0200 0.0172 -0.2182 0.9344 0.0209 -0.0091 0.0153 0.0303 -0.5817 0.7016 0.0000 0.0058 -0.6886 -0.6018 1.361162 
908.4269 38.290 130.308 -0.61002 0.71911 1.010 0.0000 0.22501 12.0000 14.50 0.9524 0.9527 1.0000 -0.2169 -0.0190 0.0166 -0.2181 0.9335 0.0212 -0.0114 0.0149 0.0288 -0.5796 0.7010 0.0011 0.0063 -0.6894 -0.5999 1.364823 
905.5737 38.257 130.263 -0.60880 0.71882 1.029 0.0000 0.22590 12.0000 14.57 0.9503 0.9506 1.0000 -0.2171 -0.0195 0.0172 -0.2189 0.9299 0.0225 -0.0110 0.0155 0.0286 -0.5774 0.7002 0.0003 0.0068 -0.6870 -0.5975 1.369123 
903.1259 38.256 130.157 -0.60634 0.71861 1.019 0.0000 0.22554 12.0000 15.11 0.9494 0.9497 1.0000 -0.2173 -0.0209 0.0164 -0.2179 0.9297 0.0213 -0.0122 0.0156 0.0288 -0.5752 0.7008 -0.0004 0.0073 -0.6860 -0.5949 1.372834 
900.6761 38.271 130.009 -0.60333 0.71879 1.025 0.0000 0.22459 12.0000 15.22 0.9482 0.9485 1.0000 -0.2154 -0.0216 0.0148 -0.2179 0.9292 0.0214 -0.0113 0.0167 0.0295 -0.5730 0.7008 -0.0016 0.0074 -0.6859 -0.5909 1.376568 
897.8156 38.240 129.883 -0.60042 0.71853 1.023 0.0000 0.22516 12.0000 15.43 0.9466 0.9469 1.0000 -0.2148 -0.0221 0.0134 -0.2192 0.9277 0.0248 -0.0100 0.0154 0.0284 -0.5701 0.6985 -0.0023 0.0064 -0.6866 -0.5873 1.380954 
895.3613 38.205 129.888 -0.59950 0.71729 1.024 0.0000 0.22599 12.0000 16.11 0.9465 0.9468 1.0000 -0.2157 -0.0227 0.0135 -0.2201 0.9287 0.0267 -0.0091 0.0157 0.0273 -0.5694 0.6968 -0.0031 0.0045 -0.6867 -0.5869 1.384739 
892.9051 38.145 129.842 -0.59959 0.71858 1.051 0.0000 0.22832 12.0000 16.04 0.9470 0.9473 1.0000 -0.2177 -0.0233 0.0128 -0.2226 0.9282 0.0278 -0.0078 0.0145 0.0246 -0.5696 0.6974 -0.0020 0.0053 -0.6882 -0.5865 1.388548 
890.0368 38.066 129.823 -0.59861 0.71789 1.037 0.0000 0.23078 12.0000 16.97 0.9459 0.9462 1.0000 -0.2189 -0.0260 0.0126 -0.2257 0.9265 0.0277 -0.0075 0.0146 0.0227 -0.5693 0.6954 -0.0017 0.0048 -0.6877 -0.5840 1.393023 
887.5759 38.017 129.738 -0.59789 0.71918 1.035 0.0000 0.23261 12.0000 16.56 0.9453 0.9456 1.0000 -0.2193 -0.0267 0.0126 -0.2283 0.9243 0.0303 -0.0057 0.0142 0.0227 -0.5691 0.6955 -0.0018 0.0049 -0.6884 -0.5814 1.396885 
885.1130 37.979 129.542 -0.59539 0.72119 1.028 0.0000 0.23390 12.0000 17.06 0.9458 0.9461 1.0000 -0.2201 -0.0275 0.0131 -0.2302 0.9251 0.0323 -0.0030 0.0136 0.0233 -0.5673 0.6981 -0.0016 0.0055 -0.6903 -0.5789 1.400772 
882.2369 37.929 129.378 -0.59530 0.72531 1.043 0.0000 0.23642 12.0000 17.32 0.9483 0.9487 1.0000 -0.2226 -0.0266 0.0140 -0.2329 0.9268 0.0350 -0.0012 0.0129 0.0233 -0.5676 0.7022 -0.0002 0.0067 -0.6953 -0.5794 1.405339 
879.7693 37.856 129.343 -0.59631 0.72743 1.022 0.0000 0.23955 12.0000 17.92 0.9507 0.9510 1.0000 -0.2260 -0.0265 0.0144 -0.2360 0.9287 0.0360 -0.0010 0.0122 0.0221 -0.5694 0.7051 0.0009 0.0063 -0.6979 -0.5807 1.409281 
877.2994 37.793 129.139 -0.59602 0.73239 1.025 0.0000 0.24271 12.0000 18.62 0.9531 0.9535 1.0000 -0.2298 -0.0247 0.0147 -0.2385 0.9296 0.0367 -0.0012 0.0106 0.0203 -0.5694 0.7104 0.0018 0.0070 -0.7028 -0.5807 1.413248 
874.4153 37.737 128.971 -0.59356 0.73373 1.014 0.0000 0.24454 12.0000 18.66 0.9528 0.9532 1.0000 -0.2312 -0.0250 0.0166 -0.2406 0.9290 0.0386 -0.0016 0.0108 0.0189 -0.5669 0.7126 0.0013 0.0052 -0.7028 -0.5780 1.417910 
871.9407 37.722 128.820 -0.59056 0.73397 1.030 0.0000 0.24460 12.0000 19.58 0.9532 0.9536 1.0000 -0.2321 -0.0250 0.0178 -0.2404 0.9315 0.0387 -0.0024 0.0102 0.0177 -0.5648 0.7142 0.0004 0.0031 -0.7034 -0.5759 1.421934 
869.4639 37.733 128.624 -0.58776 0.73565 1.034 0.0000 0.24410 12.0000 19.99 0.9544 0.9548 1.0000 -0.2320 -0.0237 0.0177 -0.2402 0.9344 0.0381 -0.0026 0.0103 0.0182 -0.5641 0.7170 -0.0002 0.0030 -0.7060 -0.5729 1.425984 
866.5714 37.683 128.539 -0.58612 0.73583 1.030 0.0000 0.24565 12.0000 19.85 0.9553 0.9557 1.0000 -0.2341 -0.0223 0.0187 -0.2416 0.9367 0.0408 -0.0040 0.0094 0.0165 -0.5628 0.7183 -0.0002 0.0013 -0.7067 -0.5723 1.430744 
864.0897 37.703 128.421 -0.58395 0.73620 1.032 0.0000 0.24467 12.0000 20.34 0.9563 0.9567 1.0000 -0.2340 -0.0205 0.0191 -0.2407 0.9400 0.0409 -0.0049 0.0094 0.0161 -0.5619 0.7193 -0.0007 -0.0003 -0.7089 -0.5710 1.434853 
861.6057 37.713 128.348 -0.58268 0.73653 1.022 0.0000 0.24418 12.0000 20.67 0.9566 0.9569 1.0000 -0.2331 -0.0204 0.0190 -0.2409 0.9412 0.0401 -0.0054 0.0100 0.0170 -0.5619 0.7207 0.0002 0.0009 -0.7091 -0.5692 1.438990 
858.7048 37.717 128.241 -0.57895 0.73462 1.030 0.0000 0.24306 12.0000 21.39 0.9549 0.9553 1.0000 -0.2320 -0.0213 0.0205 -0.2399 0.9417 0.0401 -0.0054 0.0114 0.0182 -0.5582 0.7186 0.0013 0.0029 -0.7077 -0.5659 1.443851 
856.2158 37.716 128.103 -0.57620 0.73477 1.030 0.0000 0.24268 12.0000 22.19 0.9535 0.9539 1.0000 -0.2312 -0.0217 0.0201 -0.2397 0.9404 0.0412 -0.0051 0.0119 0.0189 -0.5551 0.7187 0.0021 0.0046 -0.7071 -0.5629 1.448048 
853.7244 37.750 127.978 -0.57324 0.73430 1.044 0.0000 0.24092 12.0000 22.35 0.9530 0.9534 1.0000 -0.2298 -0.0212 0.0197 -0.2380 0.9418 0.0408 -0.0047 0.0122 0.0213 -0.5529 0.7182 0.0022 0.0052 -0.7077 -0.5603 1.452274 
850.8148 37.747 127.926 -0.57259 0.73484 1.024 0.0000 0.24103 12.0000 22.63 0.9525 0.9530 1.0000 -0.2295 -0.0214 0.0188 -0.2384 0.9409 0.0416 -0.0051 0.0128 0.0227 -0.5522 0.7182 0.0024 0.0058 -0.7081 -0.5592 1.457241 
848.3182 37.719 127.821 -0.57115 0.73576 1.032 0.0000 0.24197 12.0000 22.95 0.9513 0.9517 1.0000 -0.2295 -0.0224 0.0178 -0.2395 0.9382 0.0413 -0.0052 0.0135 0.0234 -0.5501 0.7172 0.0033 0.0070 -0.7089 -0.5569 1.461529 
845.8193 37.711 127.719 -0.57018 0.73722 1.019 0.0000 0.24238 12.0000 23.53 0.9505 0.9510 1.0000 -0.2283 -0.0228 0.0159 -0.2410 0.9359 0.0427 -0.0055 0.0141 0.0249 -0.5493 0.7179 0.0042 0.0085 -0.7093 -0.5545 1.465847 
842.9009 37.688 127.551 -0.56660 0.73704 1.041 0.0000 0.24256 12.0000 24.30 0.9487 0.9492 1.0000 -0.2278 -0.0244 0.0147 -0.2414 0.9344 0.0435 -0.0069 0.0148 0.0252 -0.5458 0.7172 0.0042 0.0080 -0.7085 -0.5502 1.470923 
840.3967 37.629 127.479 -0.56548 0.73750 1.029 0.0000 0.24453 12.0000 25.02 0.9480 0.9486 1.0000 -0.2287 -0.0254 0.0142 -0.2440 0.9328 0.0461 -0.0066 0.0142 0.0252 -0.5448 0.7169 0.0034 0.0066 -0.7085 -0.5481 1.475305 
837.8901 37.581 127.372 -0.56462 0.73923 1.032 0.0000 0.24641 12.0000 25.20 0.9489 0.9494 1.0000 -0.2305 -0.0256 0.0136 -0.2459 0.9332 0.0465 -0.0067 0.0139 0.0255 -0.5450 0.7184 0.0031 0.0056 -0.7107 -0.5465 1.479719 
834.9625 37.486 127.205 -0.56355 0.74231 1.028 0.0000 0.25021 12.0000 26.27 0.9501 0.9507 1.0000 -0.2336 -0.0272 0.0127 -0.2501 0.9332 0.0470 -0.0067 0.0133 0.0250 -0.5450 0.7213 0.0034 0.0050 -0.7137 -0.5444 1.484907 
832.4505 37.440 126.994 -0.56180 0.74571 1.021 0.0000 0.25226 12.0000 26.15 0.9513 0.9518 1.0000 -0.2359 -0.0277 0.0128 -0.2518 0.9335 0.0460 -0.0050 0.0128 0.0244 -0.5436 0.7242 0.0032 0.0047 -0.7176 -0.5426 1.489388 
829.9360 37.365 126.841 -0.56033 0.74788 1.016 0.0000 0.25512 12.0000 27.20 0.9524 0.9529 1.0000 -0.2388 -0.0281 0.0133 -0.2547 0.9342 0.0461 -0.0042 0.0121 0.0242 -0.5428 0.7263 0.0031 0.0038 -0.7203 -0.5409 1.493901 
826.9992 37.264 126.584 -0.55731 0.75084 1.011 0.0000 0.25882 12.0000 27.86 0.9531 0.9536 1.0000 -0.2426 -0.0288 0.0144 -0.2580 0.9341 0.0467 -0.0032 0.0116 0.0223 -0.5392 0.7292 0.0040 0.0043 -0.7230 -0.5387 1.499206 
824.4792 37.205 126.385 -0.55434 0.75231 1.012 0.0000 0.26073 12.0000 27.79 0.9534 0.9539 1.0000 -0.2449 -0.0289 0.0147 -0.2596 0.9347 0.0464 -0.0027 0.0108 0.0215 -0.5368 0.7310 0.0038 0.0035 -0.7246 -0.5357 1.503788 
821.9566 37.148 126.119 -0.55206 0.75654 0.995 0.0000 0.26333 12.0000 29.04 0.9552 0.9557 1.0000 -0.2474 -0.0281 0.0151 -0.2624 0.9359 0.0459 -0.0017 0.0104 0.0213 -0.5344 0.7360 0.0045 0.0044 -0.7285 -0.5343 1.508403 
819.0103 37.114 125.897 -0.54964 0.75938 1.003 0.0000 0.26475 12.0000 30.02 0.9563 0.9568 1.0000 -0.2489 -0.0277 0.0156 -0.2639 0.9370 0.0445 -0.0011 0.0105 0.0218 -0.5325 0.7397 0.0041 0.0040 -0.7312 -0.5322 1.513829 
816.4821 37.091 125.665 -0.54655 0.76158 0.991 0.0000 0.26559 12.0000 30.22 0.9570 0.9574 1.0000 -0.2501 -0.0272 0.0158 -0.2647 0.9381 0.0439 -0.0017 0.0108 0.0222 -0.5293 0.7429 0.0045 0.0051 -0.7332 -0.5300 1.518517 
813.9513 37.099 125.497 -0.54428 0.76315 1.006 0.0000 0.26526 12.0000 31.16 0.9576 0.9581 1.0000 -0.2496 -0.0261 0.0157 -0.2649 0.9396 0.0435 -0.0015 0.0115 0.0234 -0.5274 0.7455 0.0052 0.0069 -0.7347 -0.5283 1.523238 
810.9953 37.118 125.305 -0.54026 0.76289 0.986 0.0000 0.26391 12.0000 31.68 0.9570 0.9574 1.0000 -0.2494 -0.0261 0.0150 -0.2629 0.9410 0.0415 -0.0039 0.0125 0.0246 -0.5241 0.7464 0.0052 0.0071 -0.7345 -0.5246 1.528790 
808.4587 37.115 125.242 -0.53862 0.76236 0.973 0.0000 0.26359 12.0000 31.77 0.9562 0.9566 1.0000 -0.2496 -0.0256 0.0150 -0.2620 0.9408 0.0410 -0.0047 0.0129 0.0243 -0.5224 0.7458 0.0043 0.0062 -0.7338 -0.5229 1.533587 
805.4960 37.143 125.079 -0.53559 0.76266 0.973 0.0000 0.26221 12.0000 33.77 0.9560 0.9565 1.0000 -0.2486 -0.0253 0.0144 -0.2607 0.9423 0.0404 -0.0060 0.0133 0.0261 -0.5205 0.7463 0.0034 0.0061 -0.7351 -0.5197 1.539228 
802.9537 37.157 124.946 -0.53334 0.76322 0.958 0.0000 0.26148 12.0000 33.54 0.9560 0.9564 1.0000 -0.2481 -0.0257 0.0135 -0.2600 0.9431 0.0393 -0.0067 0.0141 0.0268 -0.5185 0.7469 0.0039 0.0081 -0.7361 -0.5179 1.544101 
800.4086 37.182 124.872 -0.53149 0.76268 0.955 0.0000 0.26019 12.0000 33.80 0.9549 0.9553 1.0000 -0.2468 -0.0256 0.0125 -0.2587 0.9427 0.0382 -0.0063 0.0144 0.0270 -0.5169 0.7458 0.0030 0.0083 -0.7359 -0.5156 1.549011 
797.4359 37.172 124.814 -0.53054 0.76294 0.943 0.0000 0.26043 12.0000 35.09 0.9553 0.9557 1.0000 -0.2478 -0.0257 0.0121 -0.2584 0.9437 0.0362 -0.0073 0.0138 0.0262 -0.5156 0.7462 0.0022 0.0078 -0.7367 -0.5156 1.554786 
794.8848 37.130 124.702 -0.52876 0.76358 0.945 0.0000 0.26176 12.0000 35.28 0.9540 0.9544 1.0000 -0.2486 -0.0270 0.0106 -0.2595 0.9412 0.0361 -0.0076 0.0140 0.0249 -0.5133 0.7456 0.0026 0.0096 -0.7366 -0.5132 1.559776 
792.3311 37.102 124.556 -0.52684 0.76497 0.933 0.0000 0.26276 12.0000 35.30 0.9536 0.9540 1.0000 -0.2496 -0.0275 0.0093 -0.2602 0.9401 0.0342 -0.0080 0.0133 0.0233 -0.5113 0.7463 0.0024 0.0103 -0.7377 -0.5108 1.564803 
789.3481 37.054 124.319 -0.52482 0.76880 0.938 0.0000 0.26500 12.0000 37.14 0.9548 0.9551 1.0000 -0.2511 -0.0277 0.0080 -0.2630 0.9400 0.0328 -0.0076 0.0125 0.0226 -0.5093 0.7499 0.0026 0.0113 -0.7416 -0.5088 1.570716 
786.7883 37.006 124.092 -0.52228 0.77163 0.932 0.0000 0.26699 12.0000 36.91 0.9554 0.9557 1.0000 -0.2527 -0.0276 0.0071 -0.2652 0.9398 0.0315 -0.0084 0.0123 0.0223 -0.5068 0.7523 0.0026 0.0106 -0.7445 -0.5063 1.575826 
784.2256 36.948 123.868 -0.51969 0.77432 0.929 0.0000 0.26924 12.0000 37.97 0.9565 0.9568 1.0000 -0.2550 -0.0276 0.0065 -0.2676 0.9408 0.0300 -0.0095 0.0116 0.0216 -0.5046 0.7559 0.0027 0.0102 -0.7468 -0.5040 1.580976 
781.2322 36.863 123.585 -0.51599 0.77707 0.923 0.0000 0.27232 12.0000 38.73 0.9575 0.9578 1.0000 -0.2582 -0.0274 0.0068 -0.2706 0.9418 0.0284 -0.0102 0.0116 0.0216 -0.5013 0.7597 0.0029 0.0087 -0.7492 -0.5007 1.587034 
778.6634 36.797 123.353 -0.51343 0.78006 0.914 0.0000 0.27496 12.0000 38.95 0.9591 0.9594 1.0000 -0.2617 -0.0268 0.0069 -0.2727 0.9434 0.0250 -0.0117 0.0111 0.0216 -0.5001 0.7642 0.0021 0.0062 -0.7517 -0.4977 1.592269 
776.0917 36.724 123.067 -0.50953 0.78260 0.915 0.0000 0.27756 12.0000 39.95 0.9602 0.9605 1.0000 -0.2646 -0.0259 0.0079 -0.2752 0.9449 0.0241 -0.0126 0.0112 0.0230 -0.4975 0.7676 0.0017 0.0049 -0.7545 -0.4935 1.597546 
773.0877 36.671 122.716 -0.50448 0.78531 0.901 0.0000 0.27927 12.0000 40.89 0.9616 0.9619 1.0000 -0.2668 -0.0247 0.0087 -0.2771 0.9477 0.0224 -0.0143 0.0119 0.0253 -0.4942 0.7721 0.0015 0.0037 -0.7575 -0.4884 1.603753 
770.5097 36.651 122.520 -0.50172 0.78691 0.893 0.0000 0.27996 12.0000 41.15 0.9632 0.9635 1.0000 -0.2686 -0.0235 0.0095 -0.2776 0.9509 0.0193 -0.0156 0.0120 0.0264 -0.4925 0.7752 0.0009 0.0015 -0.7600 -0.4863 1.609119 
767.9287 36.624 122.310 -0.49796 0.78740 0.887 0.0000 0.28042 12.0000 43.57 0.9637 0.9640 1.0000 -0.2701 -0.0225 0.0105 -0.2777 0.9534 0.0185 -0.0164 0.0122 0.0276 -0.4896 0.7768 0.0005 0.0003 -0.7613 -0.4831 1.614527 
764.9139 36.626 122.080 -0.49503 0.78974 0.875 0.0000 0.28047 12.0000 43.16 0.9652 0.9655 1.0000 -0.2710 -0.0216 0.0107 -0.2776 0.9560 0.0164 -0.0168 0.0129 0.0303 -0.4874 0.7802 0.0004 0.0007 -0.7645 -0.4809 1.620891 
762.3265 36.617 121.911 -0.49208 0.79021 0.867 0.0000 0.28045 12.0000 43.63 0.9641 0.9644 1.0000 -0.2708 -0.0224 0.0104 -0.2775 0.9549 0.0176 -0.0157 0.0136 0.0317 -0.4845 0.7796 0.0003 0.0016 -0.7652 -0.4775 1.626392 
759.7362 36.610 121.764 -0.48931 0.79029 0.866 0.0000 0.28030 12.0000 45.39 0.9630 0.9634 1.0000 -0.2703 -0.0235 0.0101 -0.2774 0.9541 0.0186 -0.0144 0.0140 0.0327 -0.4814 0.7785 0.0003 0.0026 -0.7658 -0.4748 1.631937 
756.7104 36.616 121.619 -0.48724 0.79141 0.866 0.0000 0.28004 12.0000 45.96 0.9630 0.9634 1.0000 -0.2699 -0.0245 0.0083 -0.2774 0.9542 0.0192 -0.0130 0.0143 0.0338 -0.4790 0.7788 0.0002 0.0032 -0.7678 -0.4732 1.638463 
754.1135 36.604 121.530 -0.48583 0.79188 0.865 0.0000 0.28034 12.0000 47.02 0.9622 0.9625 1.0000 -0.2697 -0.0261 0.0068 -0.2777 0.9527 0.0201 -0.0118 0.0149 0.0337 -0.4770 0.7781 -0.0001 0.0037 -0.7682 -0.4717 1.644105 
751.5136 36.594 121.401 -0.48388 0.79268 0.861 0.0000 0.28061 12.0000 47.93 0.9619 0.9622 1.0000 -0.2695 -0.0274 0.0053 -0.2783 0.9524 0.0209 -0.0105 0.0150 0.0332 -0.4750 0.7785 -0.0001 0.0049 -0.7691 -0.4697 1.649793 
748.4765 36.547 121.272 -0.48197 0.79356 0.857 0.0000 0.28221 12.0000 48.90 0.9615 0.9619 1.0000 -0.2706 -0.0288 0.0042 -0.2801 0.9514 0.0216 -0.0093 0.0147 0.0324 -0.4727 0.7789 -0.0003 0.0044 -0.7696 -0.4678 1.656487 
745.8699 36.493 121.136 -0.48088 0.79605 0.853 0.0000 0.28459 12.0000 49.47 0.9626 0.9629 1.0000 -0.2733 -0.0288 0.0033 -0.2821 0.9515 0.0205 -0.0088 0.0137 0.0310 -0.4718 0.7815 -0.0005 0.0040 -0.7719 -0.4666 1.662276 
743.2603 36.442 120.892 -0.47794 0.79885 0.846 0.0000 0.28668 12.0000 51.62 0.9639 0.9642 1.0000 -0.2754 -0.0288 0.0029 -0.2844 0.9526 0.0199 -0.0080 0.0130 0.0304 -0.4693 0.7850 0.0000 0.0049 -0.7748 -0.4639 1.668113 
740.2117 36.366 120.633 -0.47495 0.80204 0.848 0.0000 0.28974 12.0000 50.54 0.9656 0.9659 1.0000 -0.2789 -0.0280 0.0033 -0.2873 0.9540 0.0184 -0.0082 0.0124 0.0289 -0.4670 0.7894 0.0000 0.0040 -0.7779 -0.4610 1.674983 
737.5953 36.294 120.414 -0.47182 0.80373 0.830 0.0000 0.29227 12.0000 53.01 0.9673 0.9675 1.0000 -0.2823 -0.0268 0.0047 -0.2896 0.9569 0.0167 -0.0094 0.0112 0.0274 -0.4647 0.7928 0.0000 0.0020 -0.7800 -0.4585 1.680924 
734.9758 36.218 120.147 -0.46816 0.80610 0.827 0.0000 0.29505 12.0000 53.26 0.9691 0.9694 1.0000 -0.2860 -0.0253 0.0063 -0.2922 0.9597 0.0161 -0.0097 0.0109 0.0267 -0.4619 0.7971 0.0009 0.0024 -0.7826 -0.4555 1.686915 
731.9156 36.170 119.811 -0.46340 0.80880 0.817 0.0000 0.29679 12.0000 54.16 0.9706 0.9708 1.0000 -0.2883 -0.0234 0.0075 -0.2940 0.9622 0.0148 -0.0101 0.0109 0.0281 -0.4582 0.8013 0.0021 0.0034 -0.7857 -0.4510 1.693968 
729.2891 36.120 119.586 -0.45999 0.81018 0.813 0.0000 0.29840 12.0000 54.76 0.9714 0.9716 1.0000 -0.2906 -0.0219 0.0087 -0.2954 0.9638 0.0138 -0.0105 0.0105 0.0283 -0.4556 0.8033 0.0023 0.0028 -0.7877 -0.4477 1.700069 
726.6595 36.098 119.361 -0.45688 0.81213 0.807 0.0000 0.29926 12.0000 55.12 0.9727 0.9729 1.0000 -0.2921 -0.0206 0.0092 -0.2962 0.9660 0.0125 -0.0107 0.0104 0.0295 -0.4532 0.8063 0.0031 0.0041 -0.7904 -0.4450 1.706221 
723.5875 36.084 119.137 -0.45375 0.81399 0.803 0.0000 0.29978 12.0000 56.20 0.9736 0.9738 1.0000 -0.2929 -0.0198 0.0086 -0.2969 0.9675 0.0113 -0.0106 0.0106 0.0312 -0.4506 0.8086 0.0038 0.0055 -0.7930 -0.4422 1.713465 
720.9507 36.056 119.023 -0.45163 0.81399 0.799 0.0000 0.30044 12.0000 57.76 0.9730 0.9732 1.0000 -0.2935 -0.0203 0.0080 -0.2975 0.9671 0.0116 -0.0103 0.0109 0.0318 -0.4486 0.8084 0.0038 0.0058 -0.7929 -0.4398 1.719732 
718.3109 36.037 118.880 -0.44897 0.81399 0.788 0.0000 0.30072 12.0000 58.36 0.9722 0.9724 1.0000 -0.2931 -0.0213 0.0068 -0.2983 0.9666 0.0129 -0.0097 0.0113 0.0328 -0.4461 0.8079 0.0040 0.0071 -0.7929 -0.4368 1.726052 
715.2268 36.009 118.712 -0.44641 0.81500 0.790 0.0000 0.30162 12.0000 58.23 0.9711 0.9714 1.0000 -0.2928 -0.0227 0.0051 -0.2998 0.9646 0.0147 -0.0077 0.0113 0.0330 -0.4431 0.8077 0.0044 0.0086 -0.7934 -0.4339 1.733495 
712.5797 35.972 118.597 -0.44460 0.81558 0.786 0.0000 0.30282 12.0000 58.46 0.9703 0.9706 1.0000 -0.2933 -0.0239 0.0034 -0.3011 0.9628 0.0156 -0.0060 0.0113 0.0322 -0.4408 0.8074 0.0041 0.0087 -0.7934 -0.4319 1.739934 
709.9294 35.941 118.415 -0.44258 0.81802 0.779 0.0000 0.30431 12.0000 59.26 0.9710 0.9712 1.0000 -0.2948 -0.0246 0.0019 -0.3025 0.9626 0.0153 -0.0043 0.0110 0.0317 -0.4386 0.8100 0.0040 0.0099 -0.7954 -0.4300 1.746430 
706.8331 35.881 118.180 -0.43958 0.82049 0.773 0.0000 0.30672 12.0000 58.27 0.9715 0.9718 1.0000 -0.2972 -0.0253 0.0012 -0.3047 0.9622 0.0156 -0.0025 0.0107 0.0306 -0.4355 0.8124 0.0039 0.0101 -0.7976 -0.4271 1.754080 
704.1754 35.813 117.972 -0.43626 0.82145 0.768 0.0000 0.30892 12.0000 59.76 0.9716 0.9719 1.0000 -0.2996 -0.0256 0.0014 -0.3067 0.9625 0.0159 -0.0021 0.0105 0.0295 -0.4323 0.8138 0.0038 0.0093 -0.7983 -0.4238 1.760700 
701.5145 35.748 117.727 -0.43243 0.82270 0.766 0.0000 0.31107 12.0000 60.38 0.9723 0.9725 1.0000 -0.3018 -0.0254 0.0022 -0.3090 0.9637 0.0166 -0.0011 0.0101 0.0288 -0.4286 0.8160 0.0042 0.0087 -0.7996 -0.4206 1.767379 
698.4057 35.692 117.418 -0.42782 0.82470 0.756 0.0000 0.31297 12.0000 60.99 0.9739 0.9741 1.0000 -0.3050 -0.0239 0.0031 -0.3106 0.9668 0.0152 -0.0018 0.0097 0.0282 -0.4249 0.8200 0.0043 0.0083 -0.8020 -0.4165 1.775246 
695.7374 35.639 117.174 -0.42410 0.82612 0.752 0.0000 0.31472 12.0000 61.74 0.9752 0.9755 1.0000 -0.3078 -0.0224 0.0044 -0.3120 0.9694 0.0140 -0.0027 0.0092 0.0283 -0.4222 0.8226 0.0045 0.0076 -0.8043 -0.4131 1.782054 
693.0656 35.600 116.957 -0.42078 0.82736 0.747 0.0000 0.31600 12.0000 60.19 0.9767 0.9769 1.0000 -0.3101 -0.0207 0.0054 -0.3131 0.9724 0.0124 -0.0042 0.0088 0.0288 -0.4197 0.8252 0.0047 0.0066 -0.8067 -0.4102 1.788924 
689.9442 35.569 116.685 -0.41640 0.82848 0.740 0.0000 0.31678 12.0000 60.57 0.9780 0.9782 1.0000 -0.3118 -0.0191 0.0059 -0.3141 0.9756 0.0109 -0.0058 0.0086 0.0298 -0.4164 0.8278 0.0051 0.0069 -0.8090 -0.4063 1.797018 
687.2649 35.529 116.494 -0.41270 0.82798 0.734 0.0000 0.31751 12.0000 61.18 0.9777 0.9780 1.0000 -0.3126 -0.0187 0.0064 -0.3151 0.9769 0.0110 -0.0071 0.0084 0.0302 -0.4131 0.8278 0.0050 0.0060 -0.8090 -0.4027 1.804023 
684.5822 35.497 116.303 -0.40963 0.82871 0.727 0.0000 0.31843 12.0000 61.67 0.9779 0.9781 1.0000 -0.3131 -0.0178 0.0059 -0.3166 0.9776 0.0108 -0.0079 0.0080 0.0302 -0.4106 0.8285 0.0051 0.0064 -0.8104 -0.3995 1.811093 
681.4479 35.456 116.076 -0.40585 0.82932 0.725 0.0000 0.31950 12.0000 61.58 0.9775 0.9777 1.0000 -0.3134 -0.0175 0.0050 -0.3184 0.9775 0.0116 -0.0081 0.0079 0.0305 -0.4069 0.8287 0.0053 0.0079 -0.8113 -0.3957 1.819423 
678.7576 35.409 115.899 -0.40317 0.83034 0.721 0.0000 0.32110 12.0000 61.13 0.9775 0.9777 1.0000 -0.3147 -0.0169 0.0040 -0.3202 0.9772 0.0115 -0.0081 0.0077 0.0301 -0.4042 0.8297 0.0052 0.0086 -0.8121 -0.3930 1.826634 
676.0637 35.356 115.700 -0.40056 0.83231 0.721 0.0000 0.32326 12.0000 61.43 0.9780 0.9782 1.0000 -0.3166 -0.0161 0.0028 -0.3225 0.9770 0.0107 -0.0080 0.0074 0.0297 -0.4015 0.8316 0.0052 0.0100 -0.8139 -0.3904 1.833913 
672.9164 35.279 115.423 -0.39673 0.83464 0.710 0.0000 0.32622 12.0000 63.24 0.9786 0.9787 1.0000 -0.3194 -0.0154 0.0021 -0.3255 0.9766 0.0103 -0.0077 0.0072 0.0289 -0.3978 0.8340 0.0051 0.0112 -0.8158 -0.3864 1.842490 
670.2148 35.190 115.158 -0.39237 0.83541 0.701 0.0000 0.32901 12.0000 62.17 0.9784 0.9785 1.0000 -0.3220 -0.0152 0.0023 -0.3282 0.9764 0.0114 -0.0075 0.0071 0.0279 -0.3935 0.8351 0.0053 0.0119 -0.8160 -0.3819 1.849917 
667.0584 35.105 114.837 -0.38738 0.83696 0.695 0.0000 0.33184 12.0000 61.28 0.9794 0.9796 1.0000 -0.3256 -0.0142 0.0026 -0.3309 0.9782 0.0112 -0.0073 0.0067 0.0268 -0.3891 0.8382 0.0056 0.0128 -0.8175 -0.3772 1.858671 
664.3491 35.038 114.568 -0.38315 0.83812 0.694 0.0000 0.33402 12.0000 60.97 0.9804 0.9806 1.0000 -0.3288 -0.0133 0.0031 -0.3326 0.9802 0.0106 -0.0081 0.0065 0.0263 -0.3856 0.8408 0.0057 0.0132 -0.8189 -0.3732 1.866251 
661.6360 34.969 114.294 -0.37865 0.83884 0.691 0.0000 0.33610 12.0000 61.17 0.9809 0.9811 1.0000 -0.3318 -0.0129 0.0038 -0.3342 0.9816 0.0103 -0.0087 0.0066 0.0264 -0.3815 0.8423 0.0060 0.0137 -0.8199 -0.3688 1.873903 
658.4662 34.896 114.009 -0.37393 0.83949 0.686 0.0000 0.33826 12.0000 59.61 0.9814 0.9816 1.0000 -0.3346 -0.0122 0.0044 -0.3363 0.9831 0.0097 -0.0092 0.0065 0.0267 -0.3772 0.8439 0.0061 0.0131 -0.8209 -0.3644 1.882924 
655.7453 34.851 113.784 -0.37032 0.84028 0.680 0.0000 0.33964 12.0000 58.77 0.9820 0.9821 1.0000 -0.3365 -0.0120 0.0043 -0.3376 0.9845 0.0092 -0.0094 0.0064 0.0273 -0.3739 0.8451 0.0063 0.0135 -0.8224 -0.3610 1.890737 
653.0207 34.798 113.561 -0.36665 0.84077 0.671 0.0000 0.34119 12.0000 59.65 0.9818 0.9820 1.0000 -0.3377 -0.0121 0.0039 -0.3395 0.9846 0.0093 -0.0091 0.0063 0.0275 -0.3703 0.8455 0.0063 0.0131 -0.8231 -0.3574 1.898626 
649.8373 34.730 113.321 -0.36269 0.84130 0.664 0.0000 0.34328 12.0000 56.99 0.9816 0.9818 1.0000 -0.3392 -0.0122 0.0031 -0.3420 0.9845 0.0093 -0.0086 0.0059 0.0274 -0.3665 0.8456 0.0063 0.0131 -0.8239 -0.3533 1.907927 
647.1047 34.671 113.107 -0.35952 0.84261 0.654 0.0000 0.34539 12.0000 57.64 0.9817 0.9819 1.0000 -0.3408 -0.0123 0.0020 -0.3444 0.9839 0.0090 -0.0079 0.0056 0.0276 -0.3632 0.8464 0.0065 0.0137 -0.8252 -0.3500 1.915984 
644.3683 34.590 112.883 -0.35612 0.84378 0.647 0.0000 0.34827 12.0000 55.86 0.9816 0.9818 1.0000 -0.3434 -0.0124 0.0014 -0.3472 0.9830 0.0087 -0.0071 0.0053 0.0269 -0.3597 0.8471 0.0066 0.0139 -0.8261 -0.3464 1.924120 
641.1711 34.485 112.613 -0.35196 0.84499 0.639 0.0000 0.35193 12.0000 56.59 0.9816 0.9818 1.0000 -0.3468 -0.0123 0.0007 -0.3507 0.9821 0.0086 -0.0066 0.0049 0.0264 -0.3555 0.8480 0.0069 0.0138 -0.8269 -0.3421 1.933715 
638.4266 34.401 112.344 -0.34784 0.84627 0.636 0.0000 0.35484 12.0000 56.56 0.9820 0.9822 1.0000 -0.3500 -0.0120 0.0005 -0.3534 0.9823 0.0086 -0.0063 0.0049 0.0259 -0.3516 0.8494 0.0072 0.0146 -0.8282 -0.3379 1.942027 
635.6782 34.320 112.071 -0.34346 0.84707 0.632 0.0000 0.35749 12.0000 56.85 0.9822 0.9823 1.0000 -0.3531 -0.0114 0.0004 -0.3556 0.9825 0.0088 -0.0063 0.0048 0.0254 -0.3476 0.8505 0.0073 0.0148 -0.8288 -0.3333 1.950424 
632.4670 34.236 111.765 -0.33862 0.84809 0.629 0.0000 0.36022 12.0000 56.26 0.9826 0.9827 1.0000 -0.3564 -0.0108 0.0001 -0.3579 0.9832 0.0089 -0.0061 0.0047 0.0252 -0.3430 0.8518 0.0077 0.0155 -0.8301 -0.3285 1.960327 
629.7104 34.177 111.519 -0.33460 0.84861 0.620 0.0000 0.36201 12.0000 54.32 0.9827 0.9828 1.0000 -0.3584 -0.0105 -0.0002 -0.3596 0.9836 0.0087 -0.0064 0.0044 0.0254 -0.3392 0.8525 0.0077 0.0153 -0.8308 -0.3245 1.968908 
626.9500 34.125 111.274 -0.33063 0.84915 0.614 0.0000 0.36356 12.0000 54.35 0.9828 0.9829 1.0000 -0.3602 -0.0103 -0.0007 -0.3612 0.9841 0.0086 -0.0066 0.0044 0.0256 -0.3354 0.8532 0.0077 0.0152 -0.8315 -0.3206 1.977577 
623.7246 34.060 110.998 -0.32626 0.85001 0.608 0.0000 0.36564 12.0000 54.14 0.9829 0.9830 1.0000 -0.3621 -0.0103 -0.0017 -0.3635 0.9843 0.0084 -0.0059 0.0040 0.0255 -0.3311 0.8541 0.0077 0.0149 -0.8326 -0.3163 1.987803 
620.9557 34.004 110.775 -0.32285 0.85100 0.606 0.0000 0.36759 12.0000 53.05 0.9830 0.9831 1.0000 -0.3637 -0.0105 -0.0026 -0.3656 0.9839 0.0082 -0.0054 0.0038 0.0254 -0.3274 0.8546 0.0077 0.0150 -0.8337 -0.3131 1.996667 
618.1830 33.935 110.533 -0.31902 0.85177 0.602 0.0000 0.36989 12.0000 51.42 0.9829 0.9830 1.0000 -0.3658 -0.0107 -0.0034 -0.3679 0.9835 0.0080 -0.0047 0.0036 0.0248 -0.3235 0.8552 0.0078 0.0151 -0.8343 -0.3093 2.005623 
614.9432 33.842 110.224 -0.31418 0.85282 0.595 0.0000 0.37305 12.0000 50.70 0.9831 0.9832 1.0000 -0.3690 -0.0105 -0.0041 -0.3709 0.9834 0.0076 -0.0041 0.0033 0.0240 -0.3186 0.8561 0.0081 0.0158 -0.8353 -0.3045 2.016189 
612.1619 33.751 109.946 -0.30977 0.85357 0.586 0.0000 0.37608 12.0000 49.63 0.9831 0.9833 1.0000 -0.3720 -0.0103 -0.0042 -0.3738 0.9831 0.0073 -0.0039 0.0029 0.0234 -0.3143 0.8565 0.0084 0.0160 -0.8362 -0.3000 2.025350 
609.3767 33.653 109.663 -0.30524 0.85423 0.580 0.0000 0.37933 12.0000 48.78 0.9837 0.9838 1.0000 -0.3758 -0.0100 -0.0041 -0.3767 0.9838 0.0070 -0.0042 0.0027 0.0229 -0.3101 0.8575 0.0088 0.0164 -0.8371 -0.2954 2.034607 
606.1223 33.541 109.333 -0.29990 0.85480 0.574 0.0000 0.38299 12.0000 47.74 0.9842 0.9843 1.0000 -0.3797 -0.0096 -0.0039 -0.3804 0.9846 0.0071 -0.0041 0.0025 0.0225 -0.3050 0.8582 0.0092 0.0169 -0.8382 -0.2901 2.045531 
603.3284 33.456 109.054 -0.29544 0.85541 0.563 0.0000 0.38578 12.0000 47.39 0.9846 0.9848 1.0000 -0.3828 -0.0091 -0.0041 -0.3830 0.9852 0.0073 -0.0041 0.0025 0.0224 -0.3010 0.8587 0.0093 0.0175 -0.8394 -0.2855 2.055003 
600.5306 33.371 108.774 -0.29101 0.85609 0.558 0.0000 0.38861 12.0000 44.61 0.9851 0.9852 1.0000 -0.3857 -0.0087 -0.0043 -0.3859 0.9857 0.0076 -0.0038 0.0025 0.0222 -0.2968 0.8593 0.0094 0.0177 -0.8406 -0.2811 2.064577 
597.2613 33.271 108.460 -0.28595 0.85662 0.550 0.0000 0.39189 12.0000 43.85 0.9854 0.9856 1.0000 -0.3889 -0.0082 -0.0049 -0.3894 0.9862 0.0081 -0.0032 0.0022 0.0220 -0.2919 0.8596 0.0094 0.0182 -0.8418 -0.2760 2.075879 
594.4547 33.182 108.180 -0.28140 0.85691 0.547 0.0000 0.39471 12.0000 43.83 0.9858 0.9859 1.0000 -0.3917 -0.0078 -0.0054 -0.3925 0.9868 0.0084 -0.0026 0.0020 0.0214 -0.2875 0.8598 0.0092 0.0186 -0.8427 -0.2716 2.085679 
591.6440 33.088 107.902 -0.27697 0.85743 0.538 0.0000 0.39787 12.0000 41.74 0.9861 0.9862 1.0000 -0.3947 -0.0074 -0.0061 -0.3958 0.9870 0.0087 -0.0017 0.0018 0.0206 -0.2831 0.8601 0.0091 0.0192 -0.8436 -0.2672 2.095588 
588.3597 32.970 107.564 -0.27167 0.85827 0.533 0.0000 0.40195 12.0000 41.00 0.9868 0.9869 1.0000 -0.3989 -0.0071 -0.0066 -0.4000 0.9875 0.0087 -0.0001 0.0015 0.0199 -0.2779 0.8609 0.0089 0.0203 -0.8449 -0.2621 2.107286 
585.5402 32.864 107.263 -0.26696 0.85905 0.527 0.0000 0.40566 12.0000 40.96 0.9871 0.9872 1.0000 -0.4026 -0.0067 -0.0070 -0.4035 0.9872 0.0085 0.0008 0.0015 0.0190 -0.2732 0.8612 0.0085 0.0214 -0.8459 -0.2573 2.117433 
582.7166 32.760 106.964 -0.26224 0.85970 0.522 0.0000 0.40922 12.0000 39.51 0.9876 0.9878 1.0000 -0.4064 -0.0064 -0.0073 -0.4070 0.9875 0.0083 0.0018 0.0013 0.0184 -0.2685 0.8618 0.0084 0.0223 -0.8468 -0.2527 2.127693 
579.4171 32.632 106.592 -0.25636 0.86035 0.514 0.0000 0.41360 12.0000 38.67 0.9881 0.9882 1.0000 -0.4111 -0.0060 -0.0078 -0.4110 0.9876 0.0081 0.0025 0.0013 0.0173 -0.2627 0.8623 0.0081 0.0233 -0.8477 -0.2468 2.139809 
576.5844 32.527 106.279 -0.25133 0.86067 0.507 0.0000 0.41707 12.0000 38.39 0.9885 0.9887 1.0000 -0.4148 -0.0057 -0.0080 -0.4144 0.9880 0.0079 0.0028 0.0011 0.0166 -0.2578 0.8625 0.0078 0.0238 -0.8486 -0.2419 2.150322 
573.7476 32.420 105.968 -0.24640 0.86109 0.507 0.0000 0.42068 12.0000 36.63 0.9888 0.9889 1.0000 -0.4185 -0.0055 -0.0083 -0.4177 0.9879 0.0078 0.0027 0.0011 0.0163 -0.2530 0.8627 0.0072 0.0241 -0.8490 -0.2368 2.160953 
570.4327 32.298 105.591 -0.24034 0.86130 0.496 0.0000 0.42468 12.0000 35.85 0.9893 0.9894 1.0000 -0.4225 -0.0053 -0.0087 -0.4219 0.9885 0.0074 0.0032 0.0011 0.0158 -0.2469 0.8629 0.0068 0.0245 -0.8497 -0.2310 2.173511 
567.5867 32.193 105.268 -0.23515 0.86147 0.491 0.0000 0.42812 12.0000 34.84 0.9898 0.9899 1.0000 -0.4261 -0.0050 -0.0091 -0.4254 0.9890 0.0071 0.0033 0.0009 0.0157 -0.2420 0.8631 0.0063 0.0245 -0.8504 -0.2257 2.184410 
564.7366 32.079 104.929 -0.22964 0.86125 0.484 0.0000 0.43171 12.0000 35.01 0.9903 0.9905 1.0000 -0.4297 -0.0048 -0.0093 -0.4294 0.9901 0.0072 0.0037 0.0007 0.0156 -0.2366 0.8631 0.0059 0.0244 -0.8509 -0.2204 2.195434 
561.4060 31.937 104.523 -0.22287 0.86038 0.474 0.0000 0.43591 12.0000 34.68 0.9911 0.9912 1.0000 -0.4342 -0.0045 -0.0098 -0.4342 0.9921 0.0071 0.0038 0.0003 0.0154 -0.2302 0.8625 0.0057 0.0244 -0.8515 -0.2138 2.208459 
558.5466 31.807 104.155 -0.21689 0.86000 0.466 0.0000 0.44001 12.0000 33.56 0.9917 0.9918 1.0000 -0.4384 -0.0041 -0.0098 -0.4387 0.9932 0.0070 0.0040 -0.0001 0.0154 -0.2242 0.8621 0.0054 0.0243 -0.8520 -0.2081 2.219765 
555.6830 31.672 103.795 -0.21103 0.85946 0.461 0.0000 0.44424 12.0000 32.50 0.9925 0.9926 1.0000 -0.4428 -0.0037 -0.0100 -0.4433 0.9947 0.0072 0.0042 -0.0005 0.0153 -0.2184 0.8617 0.0053 0.0242 -0.8527 -0.2026 2.231204 
552.3365 31.503 103.340 -0.20359 0.85856 0.453 0.0000 0.44946 12.0000 31.37 0.9932 0.9933 1.0000 -0.4483 -0.0033 -0.0099 -0.4489 0.9961 0.0069 0.0040 -0.0010 0.0150 -0.2113 0.8607 0.0050 0.0240 -0.8530 -0.1951 2.244722 
549.4636 31.354 102.942 -0.19710 0.85771 0.445 0.0000 0.45408 12.0000 30.79 0.9939 0.9941 1.0000 -0.4534 -0.0030 -0.0100 -0.4537 0.9975 0.0068 0.0038 -0.0014 0.0146 -0.2051 0.8597 0.0048 0.0243 -0.8535 -0.1886 2.256459 
546.5862 31.191 102.542 -0.19052 0.85640 0.439 0.0000 0.45900 12.0000 29.49 0.9944 0.9945 1.0000 -0.4585 -0.0028 -0.0101 -0.4588 0.9985 0.0066 0.0042 -0.0020 0.0140 -0.1988 0.8580 0.0048 0.0244 -0.8535 -0.1820 2.268337 
543.2238 30.983 102.074 -0.18282 0.85467 0.432 0.0000 0.46537 12.0000 27.88 0.9948 0.9949 1.0000 -0.4649 -0.0027 -0.0105 -0.4656 0.9994 0.0065 0.0045 -0.0024 0.0135 -0.1914 0.8557 0.0048 0.0247 -0.8531 -0.1742 2.282378 
540.3370 30.797 101.678 -0.17636 0.85328 0.424 0.0000 0.47125 12.0000 25.96 0.9954 0.9956 1.0000 -0.4706 -0.0026 -0.0110 -0.4720 1.0002 0.0064 0.0053 -0.0030 0.0129 -0.1852 0.8540 0.0047 0.0248 -0.8527 -0.1676 2.294572 
537.4457 30.596 101.276 -0.16979 0.85158 0.416 0.0000 0.47752 12.0000 24.56 0.9959 0.9960 1.0000 -0.4768 -0.0024 -0.0115 -0.4786 1.0007 0.0057 0.0060 -0.0033 0.0123 -0.1789 0.8521 0.0044 0.0252 -0.8517 -0.1608 2.306916 
534.0671 30.343 100.797 -0.16192 0.84906 0.408 0.0000 0.48533 12.0000 23.16 0.9965 0.9966 1.0000 -0.4845 -0.0023 -0.0119 -0.4869 1.0016 0.0048 0.0066 -0.0036 0.0115 -0.1715 0.8497 0.0044 0.0256 -0.8498 -0.1526 2.321510 
531.1663 30.111 100.392 -0.15520 0.84622 0.404 0.0000 0.49229 12.0000 21.85 0.9970 0.9971 1.0000 -0.4914 -0.0021 -0.0123 -0.4945 1.0027 0.0042 0.0077 -0.0038 0.0112 -0.1654 0.8472 0.0041 0.0259 -0.8476 -0.1454 2.334188 
528.2610 29.862 99.994 -0.14855 0.84303 0.400 0.0000 0.49972 12.0000 20.03 0.9971 0.9972 1.0000 -0.4985 -0.0018 -0.0128 -0.5024 1.0029 0.0031 0.0087 -0.0041 0.0109 -0.1594 0.8439 0.0040 0.0263 -0.8446 -0.1381 2.347025 
524.8660 29.563 99.564 -0.14144 0.83942 0.393 0.0000 0.50892 12.0000 19.16 0.9974 0.9975 1.0000 -0.5071 -0.0016 -0.0136 -0.5122 1.0029 0.0016 0.0098 -0.0045 0.0110 -0.1528 0.8401 0.0039 0.0272 -0.8411 -0.1305 2.362206 
521.9510 29.300 99.222 -0.13583 0.83658 0.383 0.0000 0.51735 12.0000 17.56 0.9975 0.9976 1.0000 -0.5148 -0.0018 -0.0145 -0.5209 1.0019 0.0005 0.0112 -0.0050 0.0114 -0.1475 0.8369 0.0037 0.0275 -0.8379 -0.1244 2.375399 
518.5446 28.969 98.840 -0.12942 0.83221 0.371 0.0000 0.52752 12.0000 16.05 0.9972 0.9974 1.0000 -0.5237 -0.0019 -0.0157 -0.5317 1.0006 -0.0007 0.0125 -0.0055 0.0109 -0.1415 0.8321 0.0033 0.0273 -0.8329 -0.1175 2.391003 
515.6198 28.659 98.542 -0.12439 0.82815 0.367 0.0000 0.53724 12.0000 15.01 0.9972 0.9974 1.0000 -0.5325 -0.0019 -0.0163 -0.5417 0.9994 -0.0025 0.0131 -0.0058 0.0104 -0.1370 0.8277 0.0030 0.0275 -0.8281 -0.1117 2.404566 
512.6906 28.328 98.280 -0.11979 0.82306 0.363 0.0000 0.54726 12.0000 13.40 0.9976 0.9978 1.0000 -0.5417 -0.0021 -0.0169 -0.5526 0.9995 -0.0039 0.0140 -0.0064 0.0103 -0.1327 0.8228 0.0029 0.0276 -0.8229 -0.1068 2.418304 
509.2673 27.919 98.026 -0.11509 0.81625 0.353 0.0000 0.55940 12.0000 13.25 0.9975 0.9977 1.0000 -0.5528 -0.0023 -0.0174 -0.5652 0.9987 -0.0050 0.0148 -0.0070 0.0107 -0.1286 0.8155 0.0026 0.0280 -0.8159 -0.1015 2.434560 
506.3282 27.550 97.882 -0.11206 0.80940 0.351 0.0000 0.57003 12.0000 11.81 0.9978 0.9980 1.0000 -0.5628 -0.0024 -0.0179 -0.5767 0.9991 -0.0053 0.0156 -0.0076 0.0106 -0.1263 0.8088 0.0024 0.0284 -0.8093 -0.0977 2.448692 
503.3844 27.177 97.802 -0.11001 0.80283 0.350 0.0000 0.58111 12.0000 10.94 0.9977 0.9979 1.0000 -0.5731 -0.0023 -0.0185 -0.5880 0.9981 -0.0046 0.0166 -0.0081 0.0096 -0.1247 0.8018 0.0015 0.0284 -0.8024 -0.0951 2.463012 
499.9442 26.758 97.859 -0.10969 0.79467 0.341 0.0000 0.59324 12.0000 9.44 0.9980 0.9982 1.0000 -0.5848 -0.0025 -0.0190 -0.6006 0.9982 -0.0051 0.0172 -0.0084 0.0086 -0.1246 0.7940 0.0010 0.0279 -0.7939 -0.0946 2.479960 
496.9904 26.404 98.037 -0.11109 0.78672 0.339 0.0000 0.60292 12.0000 8.33 0.9993 0.9995 1.0000 -0.5953 -0.0022 -0.0191 -0.6111 1.0010 -0.0053 0.0188 -0.0086 0.0085 -0.1266 0.7874 0.0006 0.0277 -0.7869 -0.0957 2.494700 
494.0320 26.040 98.319 -0.11380 0.77832 0.342 0.0000 0.61279 12.0000 7.17 1.0001 1.0003 1.0000 -0.6059 -0.0018 -0.0188 -0.6214 1.0028 -0.0059 0.0185 -0.0092 0.0072 -0.1300 0.7799 -0.0002 0.0283 -0.7790 -0.0980 2.509639 
490.5746 25.653 98.790 -0.11878 0.76820 0.332 0.0000 0.62265 12.0000 5.64 1.0014 1.0016 1.0000 -0.6183 -0.0012 -0.0180 -0.6312 1.0067 -0.0063 0.0179 -0.0096 0.0074 -0.1355 0.7717 -0.0010 0.0294 -0.7698 -0.1029 2.527326 
487.6060 25.365 99.247 -0.12405 0.76191 0.335 0.0000 0.63115 12.0000 4.83 1.0016 1.0018 1.0000 -0.6276 -0.0008 -0.0181 -0.6384 1.0059 -0.0055 0.0180 -0.0101 0.0068 -0.1406 0.7657 -0.0018 0.0301 -0.7626 -0.1082 2.542713 
484.6327 25.130 99.787 -0.13029 0.75535 0.334 0.0000 0.63725 12.0000 3.86 1.0012 1.0015 1.0000 -0.6342 -0.0007 -0.0183 -0.6439 1.0056 -0.0053 0.0173 -0.0105 0.0071 -0.1462 0.7591 -0.0023 0.0307 -0.7558 -0.1152 2.558313 
481.1579 24.878 100.485 -0.13857 0.74877 0.329 0.0000 0.64449 12.0000 3.05 1.0011 1.0013 1.0000 -0.6423 -0.0006 -0.0174 -0.6496 1.0045 -0.0059 0.0153 -0.0111 0.0062 -0.1540 0.7523 -0.0029 0.0307 -0.7487 -0.1238 2.576788 
478.1744 24.673 101.119 -0.14608 0.74325 0.335 0.0000 0.65046 12.0000 2.65 1.0007 1.0009 1.0000 -0.6478 -0.0006 -0.0171 -0.6550 1.0029 -0.0065 0.0129 -0.0110 0.0047 -0.1617 0.7463 -0.0034 0.0309 -0.7424 -0.1309 2.592865 
475.1861 24.513 101.755 -0.15347 0.73750 0.336 0.0000 0.65424 12.0000 2.53 1.0022 1.0024 1.0000 -0.6526 -0.0002 -0.0172 -0.6601 1.0066 -0.0073 0.0122 -0.0116 0.0053 -0.1694 0.7427 -0.0037 0.0321 -0.7371 -0.1386 2.609171 
471.6937 24.384 102.421 -0.16147 0.73315 0.331 0.0000 0.65796 12.0000 2.52 1.0020 1.0022 1.0000 -0.6568 0.0006 -0.0175 -0.6629 1.0057 -0.0063 0.0109 -0.0114 0.0059 -0.1773 0.7384 -0.0045 0.0316 -0.7320 -0.1466 2.628489 
468.6950 24.300 102.969 -0.16809 0.72987 0.340 0.0000 0.66032 12.0000 2.42 1.0000 1.0002 1.0000 -0.6573 0.0004 -0.0183 -0.6642 1.0014 -0.0051 0.0102 -0.0113 0.0046 -0.1838 0.7348 -0.0049 0.0312 -0.7260 -0.1526 2.645306 
465.6915 24.264 103.447 -0.17404 0.72790 0.341 0.0000 0.66150 12.0000 2.33 1.0013 1.0015 1.0000 -0.6588 0.0008 -0.0192 -0.6665 1.0035 -0.0049 0.0106 -0.0111 0.0035 -0.1896 0.7342 -0.0055 0.0319 -0.7242 -0.1591 2.662367 
462.1813 24.221 104.057 -0.18186 0.72629 0.336 0.0000 0.66374 12.0000 2.23 1.0008 1.0010 1.0000 -0.6592 0.0017 -0.0205 -0.6689 1.0008 -0.0049 0.0130 -0.0110 0.0026 -0.1973 0.7325 -0.0058 0.0298 -0.7206 -0.1666 2.682588 
459.1674 24.210 104.610 -0.18910 0.72546 0.340 0.0000 0.66514 12.0000 2.11 1.0043 1.0045 1.0000 -0.6620 0.0032 -0.0212 -0.6725 1.0062 -0.0036 0.0155 -0.0116 0.0034 -0.2054 0.7340 -0.0054 0.0301 -0.7214 -0.1739 2.700196 
456.1485 24.201 105.053 -0.19469 0.72394 0.342 0.0000 0.66553 12.0000 2.05 1.0066 1.0068 1.0000 -0.6638 0.0042 -0.0224 -0.6742 1.0105 -0.0034 0.0176 -0.0118 0.0041 -0.2114 0.7355 -0.0058 0.0307 -0.7200 -0.1800 2.718066 
452.6203 24.223 105.556 -0.20132 0.72317 0.343 0.0000 0.66539 12.0000 1.87 1.0061 1.0064 1.0000 -0.6626 0.0045 -0.0241 -0.6741 1.0090 -0.0035 0.0217 -0.0127 0.0060 -0.2165 0.7352 -0.0053 0.0294 -0.7176 -0.1879 2.739254 
449.5909 24.215 105.997 -0.20640 0.71993 0.344 0.0000 0.66424 12.0000 1.80 1.0058 1.0060 1.0000 -0.6618 0.0036 -0.0248 -0.6735 1.0103 -0.0062 0.0223 -0.0140 0.0084 -0.2200 0.7339 -0.0041 0.0284 -0.7134 -0.1949 2.757711 
446.5565 24.200 106.439 -0.21112 0.71554 0.363 0.0000 0.66236 12.0000 1.68 1.0049 1.0052 1.0000 -0.6604 0.0019 -0.0252 -0.6722 1.0120 -0.0105 0.0217 -0.0158 0.0114 -0.2227 0.7318 -0.0024 0.0274 -0.7079 -0.2021 2.776450 
443.0101 24.175 106.955 -0.21622 0.70921 0.352 0.0000 0.65944 12.0000 1.52 1.0038 1.0041 1.0000 -0.6586 -0.0011 -0.0252 -0.6702 1.0151 -0.0174 0.0194 -0.0184 0.0157 -0.2250 0.7288 0.0003 0.0261 -0.7003 -0.2107 2.798676 
439.9650 24.151 107.329 -0.21949 0.70343 0.383 0.0000 0.65647 12.0000 1.56 1.0019 1.0022 1.0000 -0.6563 -0.0039 -0.0249 -0.6676 1.0167 -0.0236 0.0168 -0.0207 0.0193 -0.2257 0.7254 0.0027 0.0250 -0.6932 -0.2169 2.818047 

# MINIMA:
439.9650 24.151 97.802 -0.65377 0.67756 0.329 0.0000 0.21403 12.0000 1.52 0.9361 0.9367 1.0000 -0.6638 -0.0330 -0.0252 -0.6742 0.9011 -0.0236 -0.0168 -0.0207 0.0026 -0.6090 0.6454 -0.0114 -0.0085 -0.8535 -0.6391 1.242747 

# MAXIMA:
997.6623 38.576 133.916 -0.10969 0.86147 1.051 0.0000 0.66553 12.0000 63.24 1.0066 1.0068 1.0000 -0.1978 0.0045 0.0253 -0.2116 1.0167 0.0470 0.0223 0.0246 0.0374 -0.1246 0.8631 0.0094 0.0321 -0.6407 -0.0946 2.818047 

# PEAKS:

# END SPECTRUM

