## SPECTRUM TYPE:
LCE

## DATE:
18/11/2025

## COMMENTS:
Au 36.7 nm Ti 3.5 nm

## NUMBER OF SPECTRUM:
1

## ELLIPSOMETRIC CONFIGURATION:
0.00 ø :Modulator
+45.00 øAnalyser

## UNIT:
nm

## SPOT SIZE:



# SPECTRUM:
1

# CAPTION:


# START TIME:
14:19:38

# END TIME:
14:19:38

# THETA ANGLE:
0.00 ø

# INCIDENCE ANGLE:
65.00 ø

# ACCUMULATION NUMBER:
25

# ELLIPSOMETRIC CONFIGURATION:
0.00 ø :Modulator
+45.00 øAnalyser

# INTEGRATION TIME:
9 ms

# FIRST POINT:
997.66 nm

# LAST POINT:
439.96 nm

# INCREMENT:
0.00 nm

# NUMBER OF POINTS:
200

# DATA:
nm Psi Delta Ic Is Reflectance Transmission IcPrim IntegrationTime IntensityMax Polarization PolarizationGen Mueller11 Mueller12 Mueller13 Mueller14 Mueller21 Mueller22 Mueller23 Mueller24 Mueller31 Mueller32 Mueller33 Mueller34 Mueller41 Mueller42 Mueller43 Mueller44 eV 
997.6623 41.278 139.992 -0.72615 0.60949 0.877 0.0000 0.12386 9.0000 4.06 0.9362 0.9370 1.0000 -0.1093 -0.0215 0.0257 -0.1276 0.9125 0.0364 -0.0041 0.0297 0.0514 -0.6685 0.5784 -0.0017 0.0017 -0.5872 -0.7202 1.242747 
994.8812 41.285 140.105 -0.72790 0.60852 0.894 0.0000 0.12373 9.0000 4.31 0.9384 0.9392 1.0000 -0.1103 -0.0221 0.0240 -0.1269 0.9165 0.0397 -0.0025 0.0277 0.0473 -0.6735 0.5848 -0.0082 -0.0046 -0.5814 -0.7215 1.246221 
992.4958 41.273 140.155 -0.72963 0.60888 0.906 0.0000 0.12435 9.0000 4.36 0.9409 0.9416 1.0000 -0.1118 -0.0220 0.0227 -0.1269 0.9201 0.0422 -0.0009 0.0258 0.0439 -0.6779 0.5894 -0.0115 -0.0077 -0.5797 -0.7231 1.249216 
990.1091 41.245 140.163 -0.73144 0.61022 0.876 0.0000 0.12558 9.0000 4.56 0.9436 0.9443 1.0000 -0.1140 -0.0213 0.0217 -0.1276 0.9234 0.0444 0.0009 0.0238 0.0408 -0.6820 0.5929 -0.0129 -0.0089 -0.5808 -0.7249 1.252228 
987.3229 41.168 139.992 -0.73587 0.61765 0.876 0.0000 0.12928 9.0000 4.81 0.9509 0.9515 1.0000 -0.1198 -0.0167 0.0210 -0.1298 0.9302 0.0491 0.0055 0.0194 0.0361 -0.6898 0.5982 -0.0082 -0.0009 -0.5940 -0.7305 1.255761 
984.9332 41.133 139.969 -0.73260 0.61541 0.892 0.0000 0.12994 9.0000 5.04 0.9492 0.9499 1.0000 -0.1196 -0.0153 0.0202 -0.1312 0.9305 0.0516 0.0036 0.0194 0.0347 -0.6864 0.5935 -0.0082 -0.0084 -0.5946 -0.7279 1.258808 
982.5420 41.139 139.888 -0.73089 0.61573 0.887 0.0000 0.12960 9.0000 5.15 0.9472 0.9478 1.0000 -0.1200 -0.0179 0.0194 -0.1298 0.9275 0.0448 0.0054 0.0179 0.0346 -0.6866 0.5906 -0.0075 -0.0072 -0.5962 -0.7222 1.261872 
979.7505 41.185 139.710 -0.72914 0.61813 0.872 0.0000 0.12805 9.0000 5.30 0.9481 0.9486 1.0000 -0.1208 -0.0192 0.0200 -0.1263 0.9294 0.0369 0.0083 0.0167 0.0380 -0.6864 0.5925 -0.0026 -0.0023 -0.6001 -0.7204 1.265467 
977.3562 41.208 139.756 -0.72801 0.61618 0.877 0.0000 0.12700 9.0000 5.54 0.9485 0.9490 1.0000 -0.1206 -0.0198 0.0199 -0.1248 0.9325 0.0323 0.0035 0.0183 0.0395 -0.6858 0.5904 -0.0015 -0.0022 -0.6003 -0.7211 1.268567 
974.9604 41.185 139.633 -0.72681 0.61784 0.872 0.0000 0.12781 9.0000 5.97 0.9464 0.9468 1.0000 -0.1214 -0.0179 0.0186 -0.1250 0.9278 0.0310 0.0030 0.0125 0.0312 -0.6829 0.5898 -0.0004 0.0000 -0.6013 -0.7182 1.271684 
972.1634 41.188 139.483 -0.72701 0.62130 0.862 0.0000 0.12800 9.0000 6.06 0.9478 0.9482 1.0000 -0.1209 -0.0194 0.0204 -0.1259 0.9283 0.0287 0.0054 0.0131 0.0337 -0.6818 0.5926 0.0013 0.0050 -0.6055 -0.7201 1.275343 
969.7643 41.173 139.588 -0.72413 0.61654 0.876 0.0000 0.12779 9.0000 6.37 0.9420 0.9423 1.0000 -0.1223 -0.0245 0.0154 -0.1232 0.9214 0.0245 -0.0032 0.0179 0.0313 -0.6793 0.5889 0.0030 0.0050 -0.5957 -0.7120 1.278498 
967.3636 41.243 139.613 -0.72265 0.61475 0.880 0.0000 0.12513 9.0000 6.74 0.9404 0.9408 1.0000 -0.1200 -0.0257 0.0144 -0.1204 0.9207 0.0232 -0.0022 0.0182 0.0303 -0.6793 0.5914 0.0019 0.0056 -0.5894 -0.7087 1.281671 
964.5610 41.251 139.607 -0.72549 0.61728 0.888 0.0000 0.12538 9.0000 6.78 0.9446 0.9450 1.0000 -0.1210 -0.0253 0.0162 -0.1205 0.9258 0.0231 0.0000 0.0170 0.0310 -0.6834 0.5968 0.0020 0.0098 -0.5919 -0.7137 1.285395 
962.1569 41.211 139.548 -0.72873 0.62134 0.885 0.0000 0.12741 9.0000 7.05 0.9478 0.9482 1.0000 -0.1234 -0.0237 0.0174 -0.1222 0.9271 0.0270 0.0013 0.0172 0.0296 -0.6864 0.6010 0.0031 0.0137 -0.5964 -0.7179 1.288607 
959.7513 41.229 139.324 -0.72893 0.62645 0.901 0.0000 0.12724 9.0000 7.39 0.9505 0.9509 1.0000 -0.1231 -0.0221 0.0155 -0.1224 0.9294 0.0310 0.0019 0.0185 0.0305 -0.6881 0.6063 0.0038 0.0164 -0.6024 -0.7183 1.291837 
956.9427 41.219 139.234 -0.72703 0.62679 0.883 0.0000 0.12744 9.0000 7.73 0.9497 0.9502 1.0000 -0.1214 -0.0231 0.0152 -0.1244 0.9289 0.0358 -0.0006 0.0212 0.0324 -0.6865 0.6082 0.0003 0.0098 -0.6008 -0.7158 1.295628 
954.5336 41.198 139.315 -0.72720 0.62516 0.909 0.0000 0.12802 9.0000 8.06 0.9499 0.9503 1.0000 -0.1216 -0.0248 0.0156 -0.1255 0.9301 0.0358 -0.0009 0.0208 0.0295 -0.6885 0.6078 -0.0033 0.0041 -0.5989 -0.7151 1.298898 
952.1228 41.224 139.256 -0.72711 0.62637 0.890 0.0000 0.12722 9.0000 8.12 0.9506 0.9510 1.0000 -0.1201 -0.0263 0.0151 -0.1256 0.9310 0.0342 0.0000 0.0194 0.0310 -0.6906 0.6090 -0.0067 0.0005 -0.6006 -0.7134 1.302187 
949.3082 41.160 139.022 -0.72865 0.63291 0.886 0.0000 0.13016 9.0000 8.10 0.9537 0.9542 1.0000 -0.1234 -0.0276 0.0173 -0.1281 0.9318 0.0312 0.0034 0.0195 0.0307 -0.6917 0.6162 -0.0060 0.0020 -0.6065 -0.7159 1.306048 
946.8937 41.104 139.020 -0.73026 0.63437 0.894 0.0000 0.13237 9.0000 8.62 0.9539 0.9543 1.0000 -0.1258 -0.0271 0.0177 -0.1296 0.9297 0.0299 0.0027 0.0205 0.0307 -0.6935 0.6170 -0.0063 0.0014 -0.6071 -0.7157 1.309378 
944.4776 40.998 138.919 -0.73072 0.63702 0.909 0.0000 0.13630 9.0000 8.71 0.9522 0.9526 1.0000 -0.1311 -0.0282 0.0168 -0.1311 0.9237 0.0262 0.0024 0.0214 0.0289 -0.6928 0.6181 -0.0060 0.0030 -0.6073 -0.7129 1.312728 
941.6566 40.981 138.684 -0.72976 0.64146 0.902 0.0000 0.13721 9.0000 9.06 0.9544 0.9548 1.0000 -0.1330 -0.0265 0.0172 -0.1313 0.9260 0.0252 0.0041 0.0191 0.0281 -0.6904 0.6235 -0.0044 0.0073 -0.6120 -0.7151 1.316660 
939.2368 40.973 138.589 -0.72791 0.64199 0.894 0.0000 0.13734 9.0000 9.25 0.9558 0.9561 1.0000 -0.1344 -0.0263 0.0181 -0.1306 0.9298 0.0241 0.0039 0.0183 0.0242 -0.6896 0.6265 -0.0024 0.0083 -0.6124 -0.7151 1.320052 
936.4113 40.934 138.516 -0.72798 0.64371 0.902 0.0000 0.13884 9.0000 9.70 0.9553 0.9556 1.0000 -0.1349 -0.0238 0.0189 -0.1327 0.9275 0.0235 0.0072 0.0141 0.0202 -0.6899 0.6263 -0.0015 0.0090 -0.6144 -0.7132 1.324036 
933.9876 40.937 138.352 -0.72564 0.64533 0.900 0.0000 0.13866 9.0000 9.83 0.9561 0.9564 1.0000 -0.1362 -0.0212 0.0190 -0.1314 0.9298 0.0235 0.0057 0.0120 0.0180 -0.6874 0.6266 0.0004 0.0114 -0.6188 -0.7130 1.327471 
931.5621 40.919 138.122 -0.72414 0.64924 0.887 0.0000 0.13948 9.0000 10.02 0.9571 0.9573 1.0000 -0.1373 -0.0201 0.0178 -0.1319 0.9303 0.0222 0.0053 0.0096 0.0162 -0.6867 0.6312 0.0015 0.0149 -0.6220 -0.7111 1.330928 
928.7301 40.987 137.786 -0.71927 0.65252 0.919 0.0000 0.13694 9.0000 10.61 0.9570 0.9572 1.0000 -0.1349 -0.0193 0.0171 -0.1297 0.9317 0.0203 0.0054 0.0107 0.0178 -0.6820 0.6340 0.0022 0.0140 -0.6265 -0.7074 1.334986 
926.3006 41.067 137.652 -0.71508 0.65178 0.909 0.0000 0.13368 9.0000 10.53 0.9573 0.9575 1.0000 -0.1315 -0.0183 0.0175 -0.1274 0.9364 0.0219 0.0052 0.0107 0.0203 -0.6795 0.6334 0.0007 0.0109 -0.6287 -0.7051 1.338488 
923.8693 41.124 137.703 -0.71193 0.64774 0.910 0.0000 0.13101 9.0000 11.08 0.9557 0.9559 1.0000 -0.1280 -0.0188 0.0180 -0.1259 0.9383 0.0226 0.0045 0.0109 0.0206 -0.6776 0.6296 -0.0002 0.0071 -0.6259 -0.7023 1.342010 
921.0304 41.127 137.645 -0.70964 0.64697 0.908 0.0000 0.13061 9.0000 11.17 0.9551 0.9553 1.0000 -0.1279 -0.0183 0.0172 -0.1254 0.9393 0.0237 0.0018 0.0118 0.0208 -0.6766 0.6284 -0.0015 0.0026 -0.6263 -0.6997 1.346147 
918.5950 41.140 137.592 -0.70888 0.64747 0.910 0.0000 0.13014 9.0000 11.49 0.9549 0.9551 1.0000 -0.1271 -0.0192 0.0174 -0.1253 0.9392 0.0222 0.0013 0.0141 0.0227 -0.6771 0.6284 -0.0020 0.0016 -0.6272 -0.6975 1.349716 
916.1577 41.183 137.448 -0.70452 0.64675 0.892 0.0000 0.12818 9.0000 10.93 0.9528 0.9530 1.0000 -0.1253 -0.0194 0.0158 -0.1233 0.9387 0.0214 -0.0022 0.0156 0.0246 -0.6735 0.6284 -0.0028 0.0009 -0.6254 -0.6923 1.353306 
913.3118 41.184 137.312 -0.70252 0.64799 0.919 0.0000 0.12805 9.0000 12.06 0.9525 0.9528 1.0000 -0.1250 -0.0194 0.0166 -0.1232 0.9387 0.0219 -0.0024 0.0177 0.0277 -0.6722 0.6308 -0.0016 0.0041 -0.6255 -0.6898 1.357523 
910.8703 41.213 137.308 -0.70217 0.64775 0.908 0.0000 0.12703 9.0000 12.12 0.9534 0.9537 1.0000 -0.1241 -0.0188 0.0166 -0.1225 0.9411 0.0238 -0.0035 0.0180 0.0294 -0.6722 0.6322 -0.0011 0.0054 -0.6252 -0.6908 1.361162 
908.4269 41.184 137.217 -0.70062 0.64839 0.909 0.0000 0.12793 9.0000 12.41 0.9526 0.9529 1.0000 -0.1253 -0.0184 0.0157 -0.1229 0.9402 0.0238 -0.0059 0.0184 0.0293 -0.6707 0.6321 -0.0010 0.0043 -0.6259 -0.6886 1.364823 
905.5737 41.137 137.180 -0.69984 0.64851 0.922 0.0000 0.12944 9.0000 12.44 0.9505 0.9508 1.0000 -0.1260 -0.0192 0.0162 -0.1246 0.9359 0.0242 -0.0057 0.0188 0.0296 -0.6689 0.6319 -0.0020 0.0036 -0.6236 -0.6860 1.369123 
903.1259 41.104 137.039 -0.69835 0.65033 0.913 0.0000 0.13057 9.0000 12.94 0.9501 0.9504 1.0000 -0.1274 -0.0203 0.0153 -0.1252 0.9348 0.0230 -0.0076 0.0192 0.0308 -0.6668 0.6335 -0.0027 0.0033 -0.6248 -0.6844 1.372834 
900.6761 41.075 136.862 -0.69630 0.65245 0.925 0.0000 0.13155 9.0000 12.99 0.9492 0.9495 1.0000 -0.1272 -0.0211 0.0141 -0.1270 0.9329 0.0223 -0.0066 0.0194 0.0310 -0.6646 0.6355 -0.0031 0.0042 -0.6257 -0.6814 1.376568 
897.8156 41.025 136.675 -0.69349 0.65408 0.925 0.0000 0.13312 9.0000 13.27 0.9478 0.9482 1.0000 -0.1278 -0.0212 0.0130 -0.1292 0.9308 0.0244 -0.0056 0.0182 0.0310 -0.6610 0.6346 -0.0036 0.0024 -0.6283 -0.6780 1.380954 
895.3613 40.960 136.662 -0.69360 0.65449 0.924 0.0000 0.13540 9.0000 13.85 0.9484 0.9488 1.0000 -0.1306 -0.0218 0.0134 -0.1309 0.9314 0.0258 -0.0045 0.0176 0.0291 -0.6610 0.6342 -0.0037 0.0013 -0.6299 -0.6787 1.384739 
892.9051 40.894 136.573 -0.69364 0.65656 0.945 0.0000 0.13784 9.0000 13.78 0.9490 0.9493 1.0000 -0.1326 -0.0220 0.0129 -0.1335 0.9307 0.0272 -0.0032 0.0168 0.0275 -0.6607 0.6355 -0.0023 0.0020 -0.6321 -0.6786 1.388548 
890.0368 40.810 136.536 -0.69270 0.65651 0.935 0.0000 0.14058 9.0000 14.66 0.9484 0.9487 1.0000 -0.1347 -0.0239 0.0135 -0.1366 0.9299 0.0285 -0.0022 0.0165 0.0246 -0.6604 0.6347 -0.0018 0.0020 -0.6323 -0.6764 1.393023 
887.5759 40.768 136.442 -0.69206 0.65809 0.935 0.0000 0.14210 9.0000 14.33 0.9479 0.9482 1.0000 -0.1350 -0.0246 0.0139 -0.1390 0.9281 0.0307 -0.0001 0.0162 0.0238 -0.6601 0.6358 -0.0016 0.0025 -0.6330 -0.6743 1.396885 
885.1130 40.766 136.244 -0.68868 0.65940 0.931 0.0000 0.14193 9.0000 14.71 0.9481 0.9484 1.0000 -0.1348 -0.0247 0.0143 -0.1391 0.9299 0.0326 0.0022 0.0157 0.0238 -0.6579 0.6381 -0.0019 0.0029 -0.6345 -0.6712 1.400772 
882.2369 40.734 136.101 -0.68827 0.66231 0.940 0.0000 0.14329 9.0000 14.88 0.9497 0.9500 1.0000 -0.1360 -0.0244 0.0155 -0.1407 0.9313 0.0337 0.0041 0.0159 0.0249 -0.6580 0.6412 -0.0010 0.0037 -0.6380 -0.6713 1.405339 
879.7693 40.706 136.053 -0.68773 0.66289 0.924 0.0000 0.14426 9.0000 15.48 0.9513 0.9517 1.0000 -0.1375 -0.0246 0.0155 -0.1415 0.9346 0.0336 0.0032 0.0155 0.0244 -0.6588 0.6433 -0.0007 0.0025 -0.6391 -0.6717 1.409281 
877.2994 40.675 135.895 -0.68745 0.66629 0.925 0.0000 0.14565 9.0000 16.02 0.9531 0.9535 1.0000 -0.1395 -0.0235 0.0154 -0.1425 0.9360 0.0336 0.0020 0.0150 0.0236 -0.6597 0.6477 -0.0006 0.0029 -0.6422 -0.6712 1.413248 
874.4153 40.639 135.720 -0.68481 0.66782 0.922 0.0000 0.14675 9.0000 15.96 0.9523 0.9527 1.0000 -0.1401 -0.0233 0.0174 -0.1439 0.9351 0.0353 0.0012 0.0151 0.0229 -0.6566 0.6497 -0.0009 0.0014 -0.6426 -0.6686 1.417910 
871.9407 40.633 135.573 -0.68191 0.66839 0.937 0.0000 0.14670 9.0000 16.73 0.9518 0.9522 1.0000 -0.1405 -0.0234 0.0185 -0.1434 0.9356 0.0348 0.0001 0.0155 0.0236 -0.6536 0.6506 -0.0024 -0.0012 -0.6432 -0.6664 1.421934 
869.4639 40.638 135.365 -0.67971 0.67110 0.938 0.0000 0.14657 9.0000 17.08 0.9528 0.9532 1.0000 -0.1405 -0.0220 0.0185 -0.1435 0.9374 0.0340 0.0000 0.0156 0.0244 -0.6525 0.6538 -0.0024 -0.0001 -0.6464 -0.6644 1.425984 
866.5714 40.615 135.293 -0.67791 0.67100 0.940 0.0000 0.14717 9.0000 16.97 0.9530 0.9534 1.0000 -0.1415 -0.0214 0.0193 -0.1438 0.9390 0.0348 -0.0019 0.0153 0.0242 -0.6509 0.6545 -0.0026 -0.0020 -0.6466 -0.6635 1.430744 
864.0897 40.629 135.169 -0.67602 0.67205 0.935 0.0000 0.14657 9.0000 17.31 0.9538 0.9542 1.0000 -0.1419 -0.0200 0.0195 -0.1427 0.9414 0.0344 -0.0030 0.0145 0.0227 -0.6499 0.6558 -0.0029 -0.0030 -0.6489 -0.6626 1.434853 
861.6057 40.630 135.082 -0.67568 0.67374 0.931 0.0000 0.14670 9.0000 17.62 0.9547 0.9550 1.0000 -0.1416 -0.0197 0.0195 -0.1433 0.9422 0.0343 -0.0032 0.0146 0.0230 -0.6503 0.6579 -0.0017 -0.0011 -0.6506 -0.6620 1.438990 
858.7048 40.624 135.000 -0.67313 0.67313 0.943 0.0000 0.14655 9.0000 18.24 0.9533 0.9537 1.0000 -0.1412 -0.0207 0.0211 -0.1434 0.9416 0.0353 -0.0020 0.0155 0.0236 -0.6476 0.6566 -0.0006 0.0008 -0.6503 -0.6594 1.443851 
856.2158 40.614 134.861 -0.67153 0.67480 0.942 0.0000 0.14691 9.0000 18.86 0.9524 0.9528 1.0000 -0.1411 -0.0207 0.0208 -0.1438 0.9395 0.0373 -0.0007 0.0157 0.0235 -0.6451 0.6575 0.0007 0.0031 -0.6513 -0.6573 1.448048 
853.7244 40.626 134.787 -0.66963 0.67463 0.952 0.0000 0.14626 9.0000 18.93 0.9521 0.9525 1.0000 -0.1407 -0.0207 0.0204 -0.1431 0.9404 0.0379 0.0005 0.0158 0.0249 -0.6443 0.6571 0.0011 0.0043 -0.6519 -0.6550 1.452274 
850.8148 40.618 134.726 -0.66899 0.67541 0.927 0.0000 0.14656 9.0000 19.24 0.9522 0.9526 1.0000 -0.1408 -0.0210 0.0195 -0.1436 0.9405 0.0392 0.0006 0.0153 0.0249 -0.6441 0.6581 0.0019 0.0051 -0.6525 -0.6541 1.457241 
848.3182 40.587 134.644 -0.66762 0.67596 0.941 0.0000 0.14751 9.0000 19.54 0.9514 0.9518 1.0000 -0.1412 -0.0218 0.0181 -0.1449 0.9392 0.0398 0.0006 0.0157 0.0245 -0.6433 0.6577 0.0029 0.0063 -0.6531 -0.6514 1.461529 
845.8193 40.583 134.565 -0.66683 0.67704 0.938 0.0000 0.14770 9.0000 20.04 0.9511 0.9516 1.0000 -0.1402 -0.0215 0.0165 -0.1462 0.9385 0.0423 0.0006 0.0162 0.0255 -0.6439 0.6586 0.0038 0.0076 -0.6539 -0.6487 1.465847 
842.9009 40.559 134.382 -0.66332 0.67780 0.949 0.0000 0.14820 9.0000 20.60 0.9502 0.9507 1.0000 -0.1402 -0.0224 0.0156 -0.1471 0.9383 0.0445 0.0001 0.0162 0.0248 -0.6409 0.6588 0.0044 0.0069 -0.6550 -0.6448 1.470923 
840.3967 40.509 134.303 -0.66187 0.67816 0.938 0.0000 0.14977 9.0000 21.30 0.9497 0.9502 1.0000 -0.1409 -0.0236 0.0150 -0.1493 0.9378 0.0454 -0.0009 0.0160 0.0257 -0.6401 0.6591 0.0034 0.0045 -0.6550 -0.6424 1.475305 
837.8901 40.475 134.198 -0.66050 0.67925 0.936 0.0000 0.15091 9.0000 21.48 0.9508 0.9513 1.0000 -0.1422 -0.0240 0.0142 -0.1505 0.9401 0.0451 -0.0016 0.0157 0.0259 -0.6408 0.6607 0.0030 0.0030 -0.6571 -0.6406 1.479719 
834.9625 40.410 134.000 -0.65883 0.68223 0.936 0.0000 0.15328 9.0000 22.44 0.9521 0.9526 1.0000 -0.1438 -0.0248 0.0141 -0.1538 0.9415 0.0455 -0.0013 0.0155 0.0263 -0.6404 0.6642 0.0030 0.0015 -0.6604 -0.6387 1.484907 
832.4505 40.368 133.796 -0.65701 0.68522 0.926 0.0000 0.15485 9.0000 22.34 0.9534 0.9538 1.0000 -0.1458 -0.0255 0.0141 -0.1551 0.9430 0.0441 -0.0001 0.0147 0.0254 -0.6399 0.6674 0.0026 0.0006 -0.6640 -0.6367 1.489388 
829.9360 40.305 133.629 -0.65584 0.68801 0.921 0.0000 0.15720 9.0000 23.21 0.9545 0.9549 1.0000 -0.1482 -0.0258 0.0148 -0.1574 0.9437 0.0433 0.0004 0.0139 0.0248 -0.6390 0.6700 0.0027 -0.0001 -0.6673 -0.6357 1.493901 
826.9992 40.212 133.400 -0.65349 0.69105 0.925 0.0000 0.16047 9.0000 23.77 0.9545 0.9550 1.0000 -0.1516 -0.0261 0.0164 -0.1601 0.9427 0.0438 0.0013 0.0143 0.0237 -0.6359 0.6724 0.0031 0.0004 -0.6701 -0.6336 1.499206 
824.4792 40.153 133.211 -0.65132 0.69331 0.923 0.0000 0.16249 9.0000 23.81 0.9548 0.9552 1.0000 -0.1538 -0.0256 0.0172 -0.1619 0.9427 0.0439 0.0021 0.0134 0.0229 -0.6337 0.6750 0.0033 0.0006 -0.6719 -0.6316 1.503788 
821.9566 40.109 132.977 -0.64966 0.69724 0.908 0.0000 0.16429 9.0000 24.78 0.9561 0.9566 1.0000 -0.1556 -0.0251 0.0173 -0.1637 0.9436 0.0427 0.0023 0.0131 0.0230 -0.6319 0.6799 0.0039 0.0019 -0.6753 -0.6308 1.508403 
819.0103 40.094 132.749 -0.64762 0.70061 0.920 0.0000 0.16499 9.0000 25.75 0.9573 0.9578 1.0000 -0.1567 -0.0244 0.0180 -0.1642 0.9449 0.0415 0.0027 0.0128 0.0232 -0.6298 0.6842 0.0037 0.0023 -0.6784 -0.6298 1.513829 
816.4821 40.071 132.535 -0.64556 0.70365 0.909 0.0000 0.16596 9.0000 25.88 0.9580 0.9584 1.0000 -0.1579 -0.0237 0.0185 -0.1649 0.9452 0.0419 0.0033 0.0131 0.0234 -0.6271 0.6878 0.0045 0.0044 -0.6810 -0.6287 1.518517 
813.9513 40.082 132.397 -0.64379 0.70511 0.924 0.0000 0.16553 9.0000 26.63 0.9581 0.9586 1.0000 -0.1573 -0.0226 0.0181 -0.1648 0.9457 0.0425 0.0037 0.0145 0.0259 -0.6256 0.6893 0.0051 0.0063 -0.6826 -0.6270 1.523238 
810.9953 40.098 132.201 -0.64054 0.70640 0.903 0.0000 0.16477 9.0000 27.26 0.9578 0.9582 1.0000 -0.1570 -0.0226 0.0172 -0.1637 0.9463 0.0414 0.0019 0.0148 0.0263 -0.6221 0.6912 0.0059 0.0081 -0.6837 -0.6246 1.528790 
808.4587 40.092 132.139 -0.63905 0.70627 0.895 0.0000 0.16480 9.0000 27.43 0.9568 0.9572 1.0000 -0.1573 -0.0226 0.0167 -0.1633 0.9454 0.0407 0.0005 0.0148 0.0256 -0.6204 0.6911 0.0050 0.0074 -0.6829 -0.6228 1.533587 
805.4960 40.105 131.968 -0.63648 0.70768 0.890 0.0000 0.16424 9.0000 29.13 0.9568 0.9572 1.0000 -0.1569 -0.0227 0.0156 -0.1628 0.9461 0.0407 -0.0004 0.0148 0.0260 -0.6188 0.6924 0.0041 0.0077 -0.6848 -0.6198 1.539228 
802.9537 40.094 131.811 -0.63481 0.70972 0.883 0.0000 0.16467 9.0000 29.03 0.9568 0.9573 1.0000 -0.1571 -0.0232 0.0146 -0.1633 0.9457 0.0405 -0.0002 0.0153 0.0265 -0.6170 0.6941 0.0048 0.0096 -0.6868 -0.6182 1.544101 
800.4086 40.103 131.720 -0.63293 0.70989 0.880 0.0000 0.16418 9.0000 29.24 0.9562 0.9566 1.0000 -0.1570 -0.0237 0.0131 -0.1625 0.9456 0.0389 -0.0004 0.0148 0.0253 -0.6157 0.6941 0.0045 0.0105 -0.6871 -0.6158 1.549011 
797.4359 40.080 131.651 -0.63160 0.71011 0.869 0.0000 0.16484 9.0000 30.42 0.9566 0.9570 1.0000 -0.1584 -0.0239 0.0124 -0.1625 0.9470 0.0366 -0.0018 0.0135 0.0228 -0.6149 0.6949 0.0037 0.0102 -0.6877 -0.6149 1.554786 
794.8848 40.040 131.522 -0.62923 0.71067 0.874 0.0000 0.16601 9.0000 30.63 0.9553 0.9557 1.0000 -0.1592 -0.0248 0.0109 -0.1637 0.9453 0.0359 -0.0025 0.0136 0.0217 -0.6125 0.6947 0.0040 0.0113 -0.6878 -0.6115 1.559776 
792.3311 40.005 131.350 -0.62716 0.71263 0.861 0.0000 0.16720 9.0000 30.66 0.9552 0.9556 1.0000 -0.1603 -0.0248 0.0102 -0.1649 0.9448 0.0338 -0.0032 0.0129 0.0203 -0.6105 0.6962 0.0038 0.0113 -0.6898 -0.6092 1.564803 
789.3481 39.965 131.110 -0.62489 0.71607 0.861 0.0000 0.16876 9.0000 32.28 0.9565 0.9568 1.0000 -0.1614 -0.0249 0.0094 -0.1671 0.9461 0.0313 -0.0033 0.0121 0.0202 -0.6092 0.7000 0.0038 0.0111 -0.6936 -0.6069 1.570716 
786.7883 39.905 130.900 -0.62293 0.71914 0.859 0.0000 0.17101 9.0000 32.17 0.9576 0.9578 1.0000 -0.1634 -0.0247 0.0092 -0.1695 0.9469 0.0300 -0.0042 0.0117 0.0196 -0.6079 0.7032 0.0040 0.0104 -0.6969 -0.6049 1.575826 
784.2256 39.850 130.684 -0.62062 0.72193 0.856 0.0000 0.17301 9.0000 33.06 0.9588 0.9591 1.0000 -0.1655 -0.0245 0.0092 -0.1716 0.9485 0.0287 -0.0052 0.0115 0.0197 -0.6061 0.7071 0.0040 0.0096 -0.6996 -0.6031 1.580976 
781.2322 39.785 130.412 -0.61678 0.72441 0.851 0.0000 0.17512 9.0000 33.79 0.9594 0.9597 1.0000 -0.1678 -0.0243 0.0097 -0.1737 0.9500 0.0271 -0.0062 0.0120 0.0207 -0.6029 0.7107 0.0037 0.0077 -0.7019 -0.5999 1.587034 
778.6634 39.728 130.180 -0.61466 0.72787 0.843 0.0000 0.17732 9.0000 34.09 0.9611 0.9614 1.0000 -0.1707 -0.0235 0.0101 -0.1754 0.9519 0.0242 -0.0078 0.0117 0.0210 -0.6019 0.7157 0.0028 0.0056 -0.7050 -0.5979 1.592269 
776.0917 39.673 129.900 -0.61101 0.73077 0.843 0.0000 0.17919 9.0000 34.92 0.9619 0.9622 1.0000 -0.1727 -0.0230 0.0109 -0.1774 0.9533 0.0236 -0.0089 0.0121 0.0228 -0.5993 0.7194 0.0018 0.0036 -0.7080 -0.5942 1.597546 
773.0877 39.642 129.558 -0.60638 0.73408 0.830 0.0000 0.18017 9.0000 35.75 0.9628 0.9631 1.0000 -0.1737 -0.0222 0.0112 -0.1786 0.9554 0.0225 -0.0106 0.0130 0.0256 -0.5959 0.7239 0.0011 0.0020 -0.7115 -0.5898 1.603753 
770.5097 39.623 129.401 -0.60451 0.73591 0.827 0.0000 0.18089 9.0000 36.03 0.9641 0.9644 1.0000 -0.1751 -0.0215 0.0114 -0.1790 0.9578 0.0200 -0.0116 0.0134 0.0270 -0.5952 0.7268 0.0003 0.0001 -0.7139 -0.5883 1.609119 
767.9287 39.611 129.207 -0.60100 0.73673 0.820 0.0000 0.18100 9.0000 38.13 0.9644 0.9646 1.0000 -0.1761 -0.0212 0.0116 -0.1786 0.9597 0.0192 -0.0127 0.0136 0.0280 -0.5925 0.7286 -0.0003 -0.0008 -0.7152 -0.5853 1.614527 
764.9139 39.609 128.984 -0.59872 0.73979 0.812 0.0000 0.18123 9.0000 37.88 0.9657 0.9660 1.0000 -0.1768 -0.0206 0.0110 -0.1787 0.9616 0.0177 -0.0131 0.0141 0.0300 -0.5907 0.7324 -0.0002 0.0003 -0.7187 -0.5837 1.620891 
762.3265 39.597 128.808 -0.59597 0.74101 0.806 0.0000 0.18151 9.0000 38.40 0.9645 0.9648 1.0000 -0.1767 -0.0215 0.0102 -0.1790 0.9597 0.0185 -0.0120 0.0150 0.0316 -0.5877 0.7323 -0.0002 0.0011 -0.7199 -0.5803 1.626392 
759.7362 39.583 128.639 -0.59348 0.74239 0.804 0.0000 0.18189 9.0000 40.03 0.9635 0.9638 1.0000 -0.1767 -0.0225 0.0098 -0.1795 0.9582 0.0194 -0.0106 0.0153 0.0325 -0.5843 0.7322 0.0000 0.0020 -0.7215 -0.5779 1.631937 
756.7104 39.572 128.487 -0.59153 0.74402 0.803 0.0000 0.18228 9.0000 40.71 0.9637 0.9640 1.0000 -0.1770 -0.0236 0.0078 -0.1800 0.9584 0.0192 -0.0095 0.0153 0.0324 -0.5824 0.7333 0.0001 0.0034 -0.7238 -0.5760 1.638463 
754.1135 39.537 128.366 -0.59017 0.74551 0.806 0.0000 0.18357 9.0000 41.51 0.9632 0.9635 1.0000 -0.1779 -0.0248 0.0066 -0.1813 0.9569 0.0198 -0.0084 0.0157 0.0321 -0.5804 0.7339 0.0002 0.0039 -0.7250 -0.5744 1.644105 
751.5136 39.506 128.192 -0.58807 0.74753 0.797 0.0000 0.18468 9.0000 42.37 0.9632 0.9636 1.0000 -0.1786 -0.0258 0.0055 -0.1827 0.9564 0.0202 -0.0070 0.0155 0.0315 -0.5781 0.7356 0.0006 0.0052 -0.7269 -0.5724 1.649793 
748.4765 39.453 128.008 -0.58557 0.74928 0.799 0.0000 0.18645 9.0000 43.45 0.9632 0.9635 1.0000 -0.1801 -0.0266 0.0048 -0.1846 0.9561 0.0202 -0.0064 0.0151 0.0303 -0.5753 0.7372 0.0005 0.0044 -0.7285 -0.5701 1.656487 
745.8699 39.393 127.838 -0.58404 0.75191 0.795 0.0000 0.18876 9.0000 43.97 0.9642 0.9645 1.0000 -0.1826 -0.0264 0.0042 -0.1868 0.9568 0.0189 -0.0062 0.0145 0.0293 -0.5744 0.7401 0.0003 0.0035 -0.7312 -0.5685 1.662276 
743.2603 39.347 127.567 -0.58091 0.75523 0.785 0.0000 0.19050 9.0000 45.99 0.9653 0.9656 1.0000 -0.1843 -0.0262 0.0042 -0.1887 0.9580 0.0179 -0.0059 0.0140 0.0295 -0.5717 0.7440 0.0006 0.0036 -0.7347 -0.5657 1.668113 
740.2117 39.286 127.299 -0.57743 0.75801 0.792 0.0000 0.19260 9.0000 45.03 0.9665 0.9668 1.0000 -0.1867 -0.0255 0.0046 -0.1908 0.9599 0.0159 -0.0067 0.0135 0.0290 -0.5694 0.7479 0.0003 0.0017 -0.7377 -0.5623 1.674983 
737.5953 39.229 127.084 -0.57410 0.75952 0.773 0.0000 0.19444 9.0000 47.23 0.9677 0.9679 1.0000 -0.1891 -0.0246 0.0059 -0.1925 0.9627 0.0142 -0.0080 0.0125 0.0286 -0.5672 0.7509 -0.0003 -0.0015 -0.7398 -0.5596 1.680924 
734.9758 39.169 126.829 -0.57055 0.76187 0.770 0.0000 0.19645 9.0000 47.49 0.9690 0.9692 1.0000 -0.1919 -0.0233 0.0072 -0.1942 0.9652 0.0137 -0.0087 0.0125 0.0288 -0.5646 0.7547 0.0002 -0.0017 -0.7425 -0.5566 1.686915 
731.9156 39.130 126.521 -0.56641 0.76486 0.762 0.0000 0.19779 9.0000 48.25 0.9700 0.9702 1.0000 -0.1934 -0.0220 0.0079 -0.1956 0.9670 0.0123 -0.0095 0.0129 0.0309 -0.5616 0.7589 0.0010 -0.0010 -0.7456 -0.5526 1.693968 
729.2891 39.096 126.315 -0.56306 0.76608 0.757 0.0000 0.19874 9.0000 48.87 0.9702 0.9704 1.0000 -0.1948 -0.0212 0.0083 -0.1963 0.9683 0.0112 -0.0103 0.0127 0.0316 -0.5591 0.7606 0.0008 -0.0019 -0.7473 -0.5491 1.700069 
726.6595 39.075 126.104 -0.56051 0.76854 0.754 0.0000 0.19960 9.0000 49.42 0.9712 0.9715 1.0000 -0.1960 -0.0206 0.0081 -0.1971 0.9697 0.0100 -0.0104 0.0128 0.0330 -0.5572 0.7636 0.0014 -0.0005 -0.7502 -0.5468 1.706221 
723.5875 39.061 125.883 -0.55773 0.77096 0.752 0.0000 0.20015 9.0000 50.67 0.9720 0.9722 1.0000 -0.1967 -0.0203 0.0068 -0.1977 0.9708 0.0088 -0.0103 0.0129 0.0344 -0.5549 0.7664 0.0021 0.0013 -0.7530 -0.5443 1.713465 
720.9507 39.034 125.756 -0.55554 0.77152 0.749 0.0000 0.20089 9.0000 52.15 0.9716 0.9719 1.0000 -0.1973 -0.0208 0.0060 -0.1986 0.9707 0.0092 -0.0097 0.0131 0.0345 -0.5527 0.7669 0.0022 0.0018 -0.7536 -0.5421 1.719732 
718.3109 38.998 125.588 -0.55315 0.77297 0.742 0.0000 0.20209 9.0000 52.77 0.9712 0.9714 1.0000 -0.1979 -0.0216 0.0049 -0.2002 0.9698 0.0107 -0.0084 0.0133 0.0348 -0.5502 0.7679 0.0027 0.0036 -0.7548 -0.5394 1.726052 
715.2268 38.959 125.380 -0.55037 0.77502 0.744 0.0000 0.20348 9.0000 52.84 0.9707 0.9710 1.0000 -0.1985 -0.0225 0.0036 -0.2021 0.9685 0.0126 -0.0062 0.0134 0.0345 -0.5468 0.7692 0.0033 0.0056 -0.7564 -0.5365 1.733495 
712.5797 38.907 125.229 -0.54840 0.77658 0.741 0.0000 0.20532 9.0000 53.05 0.9703 0.9706 1.0000 -0.2000 -0.0232 0.0025 -0.2039 0.9672 0.0132 -0.0043 0.0133 0.0331 -0.5443 0.7702 0.0034 0.0062 -0.7574 -0.5345 1.739934 
709.9294 38.862 125.010 -0.54615 0.77968 0.733 0.0000 0.20712 9.0000 53.74 0.9714 0.9716 1.0000 -0.2020 -0.0235 0.0015 -0.2055 0.9678 0.0127 -0.0026 0.0127 0.0325 -0.5420 0.7739 0.0037 0.0074 -0.7603 -0.5327 1.746430 
706.8331 38.796 124.746 -0.54279 0.78254 0.727 0.0000 0.20952 9.0000 52.98 0.9722 0.9725 1.0000 -0.2046 -0.0236 0.0013 -0.2078 0.9686 0.0126 -0.0010 0.0123 0.0313 -0.5388 0.7774 0.0038 0.0075 -0.7631 -0.5297 1.754080 
704.1754 38.732 124.516 -0.53917 0.78404 0.722 0.0000 0.21158 9.0000 54.39 0.9725 0.9727 1.0000 -0.2070 -0.0233 0.0022 -0.2098 0.9695 0.0132 -0.0006 0.0119 0.0302 -0.5355 0.7796 0.0037 0.0065 -0.7646 -0.5264 1.760700 
701.5145 38.673 124.261 -0.53513 0.78561 0.721 0.0000 0.21342 9.0000 55.01 0.9730 0.9732 1.0000 -0.2090 -0.0229 0.0034 -0.2116 0.9710 0.0135 0.0001 0.0115 0.0298 -0.5317 0.7822 0.0040 0.0057 -0.7663 -0.5230 1.767379 
698.4057 38.621 123.960 -0.53079 0.78812 0.712 0.0000 0.21514 9.0000 55.54 0.9744 0.9746 1.0000 -0.2116 -0.0217 0.0044 -0.2131 0.9740 0.0122 -0.0008 0.0110 0.0296 -0.5284 0.7865 0.0040 0.0050 -0.7692 -0.5194 1.775246 
695.7374 38.588 123.726 -0.52696 0.78936 0.711 0.0000 0.21605 9.0000 56.53 0.9753 0.9755 1.0000 -0.2133 -0.0206 0.0051 -0.2137 0.9765 0.0110 -0.0021 0.0106 0.0298 -0.5259 0.7888 0.0039 0.0039 -0.7714 -0.5157 1.782054 
693.0656 38.557 123.527 -0.52399 0.79085 0.703 0.0000 0.21704 9.0000 55.05 0.9763 0.9765 1.0000 -0.2150 -0.0195 0.0056 -0.2145 0.9789 0.0095 -0.0036 0.0102 0.0302 -0.5238 0.7912 0.0039 0.0030 -0.7739 -0.5131 1.788924 
689.9442 38.526 123.265 -0.51997 0.79263 0.701 0.0000 0.21795 9.0000 55.69 0.9772 0.9774 1.0000 -0.2161 -0.0185 0.0055 -0.2157 0.9812 0.0081 -0.0050 0.0102 0.0314 -0.5207 0.7939 0.0042 0.0035 -0.7765 -0.5095 1.797018 
687.2649 38.484 123.079 -0.51622 0.79250 0.695 0.0000 0.21893 9.0000 56.33 0.9768 0.9770 1.0000 -0.2170 -0.0184 0.0056 -0.2169 0.9821 0.0084 -0.0062 0.0102 0.0317 -0.5175 0.7940 0.0040 0.0029 -0.7768 -0.5057 1.804023 
684.5822 38.441 122.870 -0.51313 0.79408 0.690 0.0000 0.22031 9.0000 56.86 0.9768 0.9770 1.0000 -0.2180 -0.0177 0.0049 -0.2187 0.9823 0.0084 -0.0069 0.0100 0.0318 -0.5148 0.7954 0.0039 0.0034 -0.7787 -0.5024 1.811093 
681.4479 38.382 122.618 -0.50940 0.79597 0.689 0.0000 0.22226 9.0000 56.92 0.9766 0.9768 1.0000 -0.2192 -0.0175 0.0040 -0.2213 0.9817 0.0091 -0.0068 0.0099 0.0320 -0.5109 0.7968 0.0044 0.0051 -0.7806 -0.4986 1.819423 
678.7576 38.324 122.409 -0.50642 0.79773 0.685 0.0000 0.22428 9.0000 56.74 0.9769 0.9771 1.0000 -0.2211 -0.0168 0.0032 -0.2234 0.9820 0.0089 -0.0070 0.0095 0.0309 -0.5080 0.7990 0.0045 0.0060 -0.7821 -0.4957 1.826634 
676.0637 38.259 122.174 -0.50353 0.80041 0.686 0.0000 0.22671 9.0000 57.00 0.9777 0.9779 1.0000 -0.2234 -0.0159 0.0023 -0.2260 0.9825 0.0081 -0.0072 0.0091 0.0303 -0.5052 0.8022 0.0047 0.0074 -0.7845 -0.4931 1.833913 
672.9164 38.174 121.866 -0.49954 0.80360 0.676 0.0000 0.22984 9.0000 58.65 0.9785 0.9787 1.0000 -0.2266 -0.0149 0.0021 -0.2291 0.9827 0.0076 -0.0071 0.0088 0.0295 -0.5013 0.8060 0.0048 0.0087 -0.7873 -0.4892 1.842490 
670.2148 38.085 121.586 -0.49503 0.80508 0.668 0.0000 0.23265 9.0000 57.78 0.9784 0.9785 1.0000 -0.2297 -0.0143 0.0028 -0.2317 0.9829 0.0085 -0.0073 0.0086 0.0286 -0.4970 0.8079 0.0050 0.0092 -0.7885 -0.4846 1.849917 
667.0584 38.002 121.263 -0.49017 0.80736 0.658 0.0000 0.23541 9.0000 56.90 0.9793 0.9795 1.0000 -0.2329 -0.0134 0.0032 -0.2343 0.9847 0.0082 -0.0072 0.0081 0.0281 -0.4927 0.8117 0.0053 0.0097 -0.7907 -0.4802 1.858671 
664.3491 37.937 121.003 -0.48612 0.80896 0.660 0.0000 0.23752 9.0000 57.09 0.9801 0.9803 1.0000 -0.2358 -0.0127 0.0035 -0.2361 0.9866 0.0076 -0.0081 0.0078 0.0279 -0.4894 0.8144 0.0053 0.0097 -0.7926 -0.4763 1.866251 
661.6360 37.872 120.749 -0.48192 0.81007 0.658 0.0000 0.23948 9.0000 57.21 0.9804 0.9805 1.0000 -0.2383 -0.0123 0.0040 -0.2378 0.9877 0.0076 -0.0086 0.0079 0.0281 -0.4857 0.8161 0.0057 0.0102 -0.7940 -0.4722 1.873903 
658.4662 37.799 120.485 -0.47752 0.81115 0.655 0.0000 0.24171 9.0000 55.92 0.9805 0.9807 1.0000 -0.2407 -0.0120 0.0040 -0.2400 0.9888 0.0073 -0.0089 0.0077 0.0281 -0.4818 0.8178 0.0056 0.0098 -0.7954 -0.4679 1.882924 
655.7453 37.742 120.259 -0.47403 0.81255 0.649 0.0000 0.24355 9.0000 55.40 0.9810 0.9812 1.0000 -0.2427 -0.0120 0.0037 -0.2419 0.9899 0.0070 -0.0086 0.0078 0.0285 -0.4787 0.8195 0.0058 0.0104 -0.7974 -0.4646 1.890737 
653.0207 37.671 120.033 -0.47041 0.81370 0.644 0.0000 0.24583 9.0000 56.41 0.9808 0.9810 1.0000 -0.2445 -0.0122 0.0032 -0.2446 0.9897 0.0073 -0.0080 0.0077 0.0285 -0.4751 0.8203 0.0059 0.0105 -0.7986 -0.4609 1.898626 
649.8373 37.585 119.759 -0.46604 0.81509 0.638 0.0000 0.24859 9.0000 54.10 0.9807 0.9809 1.0000 -0.2468 -0.0121 0.0026 -0.2478 0.9897 0.0075 -0.0072 0.0073 0.0282 -0.4709 0.8215 0.0060 0.0105 -0.8003 -0.4564 1.907927 
647.1047 37.506 119.513 -0.46266 0.81730 0.627 0.0000 0.25145 9.0000 54.76 0.9812 0.9813 1.0000 -0.2492 -0.0120 0.0020 -0.2511 0.9896 0.0076 -0.0059 0.0069 0.0281 -0.4674 0.8235 0.0066 0.0113 -0.8026 -0.4531 1.915984 
644.3683 37.418 119.250 -0.45865 0.81898 0.623 0.0000 0.25441 9.0000 53.15 0.9812 0.9814 1.0000 -0.2521 -0.0118 0.0015 -0.2541 0.9895 0.0075 -0.0053 0.0067 0.0275 -0.4635 0.8252 0.0069 0.0114 -0.8041 -0.4489 1.924120 
641.1711 37.311 118.939 -0.45393 0.82096 0.615 0.0000 0.25799 9.0000 53.82 0.9813 0.9815 1.0000 -0.2558 -0.0114 0.0012 -0.2574 0.9893 0.0072 -0.0053 0.0063 0.0268 -0.4589 0.8272 0.0071 0.0113 -0.8059 -0.4441 1.933715 
638.4266 37.227 118.660 -0.44981 0.82297 0.612 0.0000 0.26091 9.0000 54.11 0.9817 0.9818 1.0000 -0.2591 -0.0109 0.0013 -0.2599 0.9894 0.0068 -0.0054 0.0063 0.0267 -0.4549 0.8294 0.0074 0.0121 -0.8079 -0.4399 1.942027 
635.6782 37.144 118.387 -0.44563 0.82464 0.609 0.0000 0.26369 9.0000 54.40 0.9818 0.9819 1.0000 -0.2624 -0.0104 0.0012 -0.2622 0.9894 0.0068 -0.0055 0.0062 0.0264 -0.4510 0.8312 0.0076 0.0122 -0.8093 -0.4355 1.950424 
632.4670 37.064 118.083 -0.44083 0.82620 0.607 0.0000 0.26625 9.0000 54.02 0.9820 0.9821 1.0000 -0.2653 -0.0102 0.0006 -0.2645 0.9900 0.0064 -0.0058 0.0060 0.0266 -0.4465 0.8330 0.0078 0.0126 -0.8110 -0.4307 1.960327 
629.7104 37.001 117.838 -0.43686 0.82723 0.601 0.0000 0.26820 9.0000 52.32 0.9819 0.9821 1.0000 -0.2674 -0.0101 0.0001 -0.2664 0.9902 0.0063 -0.0060 0.0058 0.0269 -0.4429 0.8340 0.0077 0.0124 -0.8124 -0.4266 1.968908 
626.9500 36.940 117.593 -0.43303 0.82856 0.596 0.0000 0.27019 9.0000 52.58 0.9818 0.9820 1.0000 -0.2694 -0.0101 -0.0007 -0.2683 0.9901 0.0064 -0.0060 0.0058 0.0270 -0.4390 0.8352 0.0078 0.0126 -0.8137 -0.4228 1.977577 
623.7246 36.864 117.301 -0.42848 0.83011 0.591 0.0000 0.27266 9.0000 52.48 0.9819 0.9821 1.0000 -0.2718 -0.0103 -0.0018 -0.2709 0.9903 0.0062 -0.0054 0.0056 0.0265 -0.4345 0.8368 0.0077 0.0126 -0.8154 -0.4183 1.987803 
620.9557 36.794 117.051 -0.42467 0.83163 0.591 0.0000 0.27503 9.0000 51.57 0.9822 0.9823 1.0000 -0.2740 -0.0103 -0.0025 -0.2734 0.9905 0.0062 -0.0048 0.0055 0.0263 -0.4305 0.8380 0.0077 0.0130 -0.8173 -0.4147 1.996667 
618.1830 36.709 116.776 -0.42046 0.83324 0.586 0.0000 0.27791 9.0000 49.94 0.9823 0.9825 1.0000 -0.2768 -0.0103 -0.0031 -0.2764 0.9905 0.0062 -0.0041 0.0052 0.0256 -0.4262 0.8397 0.0079 0.0131 -0.8188 -0.4107 2.005623 
614.9432 36.606 116.431 -0.41503 0.83492 0.579 0.0000 0.28131 9.0000 49.49 0.9827 0.9829 1.0000 -0.2804 -0.0099 -0.0034 -0.2797 0.9912 0.0059 -0.0037 0.0050 0.0251 -0.4210 0.8417 0.0083 0.0134 -0.8208 -0.4054 2.016189 
612.1619 36.509 116.131 -0.41026 0.83629 0.573 0.0000 0.28448 9.0000 48.36 0.9828 0.9830 1.0000 -0.2836 -0.0096 -0.0034 -0.2829 0.9913 0.0059 -0.0035 0.0047 0.0247 -0.4164 0.8429 0.0086 0.0132 -0.8224 -0.4005 2.025350 
609.3767 36.411 115.828 -0.40550 0.83775 0.567 0.0000 0.28773 9.0000 47.76 0.9832 0.9834 1.0000 -0.2873 -0.0093 -0.0035 -0.2859 0.9919 0.0055 -0.0038 0.0045 0.0245 -0.4120 0.8446 0.0091 0.0134 -0.8241 -0.3957 2.034607 
606.1223 36.300 115.486 -0.40001 0.83918 0.563 0.0000 0.29132 9.0000 47.01 0.9835 0.9837 1.0000 -0.2911 -0.0089 -0.0035 -0.2894 0.9925 0.0053 -0.0038 0.0042 0.0244 -0.4069 0.8461 0.0093 0.0135 -0.8260 -0.3901 2.045531 
603.3284 36.210 115.190 -0.39543 0.84073 0.552 0.0000 0.29438 9.0000 46.29 0.9838 0.9840 1.0000 -0.2942 -0.0085 -0.0038 -0.2924 0.9927 0.0055 -0.0036 0.0041 0.0241 -0.4026 0.8474 0.0095 0.0141 -0.8280 -0.3854 2.055003 
600.5306 36.115 114.888 -0.39069 0.84214 0.551 0.0000 0.29752 9.0000 43.34 0.9842 0.9844 1.0000 -0.2975 -0.0082 -0.0041 -0.2955 0.9933 0.0057 -0.0032 0.0039 0.0236 -0.3982 0.8488 0.0098 0.0146 -0.8299 -0.3806 2.064577 
597.2613 36.003 114.533 -0.38507 0.84366 0.543 0.0000 0.30123 9.0000 42.59 0.9846 0.9847 1.0000 -0.3011 -0.0078 -0.0048 -0.2995 0.9938 0.0058 -0.0024 0.0036 0.0229 -0.3928 0.8503 0.0098 0.0153 -0.8318 -0.3750 2.075879 
594.4547 35.899 114.219 -0.38003 0.84486 0.542 0.0000 0.30460 9.0000 42.70 0.9850 0.9851 1.0000 -0.3045 -0.0075 -0.0052 -0.3031 0.9945 0.0062 -0.0015 0.0033 0.0220 -0.3881 0.8515 0.0098 0.0161 -0.8336 -0.3699 2.085679 
591.6440 35.787 113.898 -0.37505 0.84641 0.532 0.0000 0.30845 9.0000 40.72 0.9852 0.9854 1.0000 -0.3082 -0.0071 -0.0059 -0.3070 0.9944 0.0067 -0.0004 0.0030 0.0212 -0.3832 0.8528 0.0097 0.0171 -0.8353 -0.3648 2.095588 
588.3597 35.652 113.514 -0.36904 0.84816 0.530 0.0000 0.31301 9.0000 40.17 0.9859 0.9861 1.0000 -0.3129 -0.0067 -0.0061 -0.3116 0.9951 0.0069 0.0011 0.0028 0.0204 -0.3774 0.8545 0.0096 0.0185 -0.8376 -0.3588 2.107286 
585.5402 35.535 113.172 -0.36369 0.84970 0.523 0.0000 0.31698 9.0000 40.34 0.9862 0.9863 1.0000 -0.3169 -0.0064 -0.0064 -0.3155 0.9950 0.0068 0.0018 0.0028 0.0198 -0.3722 0.8556 0.0093 0.0192 -0.8395 -0.3534 2.117433 
582.7166 35.420 112.826 -0.35826 0.85120 0.521 0.0000 0.32089 9.0000 39.05 0.9868 0.9869 1.0000 -0.3211 -0.0060 -0.0067 -0.3193 0.9957 0.0067 0.0027 0.0025 0.0191 -0.3668 0.8573 0.0092 0.0199 -0.8414 -0.3482 2.127693 
579.4171 35.282 112.409 -0.35168 0.85286 0.512 0.0000 0.32552 9.0000 38.37 0.9871 0.9872 1.0000 -0.3259 -0.0057 -0.0070 -0.3238 0.9957 0.0066 0.0031 0.0025 0.0184 -0.3602 0.8588 0.0089 0.0205 -0.8433 -0.3417 2.139809 
576.5844 35.162 112.055 -0.34607 0.85417 0.509 0.0000 0.32953 9.0000 38.46 0.9874 0.9875 1.0000 -0.3300 -0.0054 -0.0073 -0.3277 0.9958 0.0065 0.0037 0.0023 0.0179 -0.3546 0.8599 0.0085 0.0208 -0.8449 -0.3361 2.150322 
573.7476 35.040 111.701 -0.34042 0.85537 0.509 0.0000 0.33361 9.0000 36.77 0.9876 0.9877 1.0000 -0.3341 -0.0052 -0.0076 -0.3317 0.9957 0.0064 0.0039 0.0023 0.0175 -0.3490 0.8610 0.0081 0.0214 -0.8460 -0.3304 2.160953 
570.4327 34.899 111.272 -0.33349 0.85661 0.500 0.0000 0.33826 9.0000 36.07 0.9879 0.9880 1.0000 -0.3388 -0.0049 -0.0079 -0.3364 0.9960 0.0062 0.0048 0.0022 0.0171 -0.3421 0.8621 0.0077 0.0220 -0.8477 -0.3235 2.173511 
567.5867 34.774 110.890 -0.32732 0.85759 0.494 0.0000 0.34233 9.0000 34.95 0.9882 0.9884 1.0000 -0.3431 -0.0047 -0.0083 -0.3404 0.9966 0.0061 0.0050 0.0021 0.0169 -0.3362 0.8630 0.0073 0.0227 -0.8492 -0.3173 2.184410 
564.7366 34.638 110.487 -0.32073 0.85842 0.488 0.0000 0.34670 9.0000 34.95 0.9887 0.9888 1.0000 -0.3476 -0.0044 -0.0085 -0.3448 0.9974 0.0060 0.0051 0.0018 0.0164 -0.3298 0.8639 0.0069 0.0231 -0.8507 -0.3108 2.195434 
561.4060 34.472 110.010 -0.31291 0.85924 0.478 0.0000 0.35203 9.0000 34.13 0.9891 0.9892 1.0000 -0.3531 -0.0041 -0.0089 -0.3503 0.9981 0.0055 0.0055 0.0014 0.0162 -0.3220 0.8646 0.0067 0.0235 -0.8523 -0.3032 2.208459 
558.5466 34.322 109.572 -0.30561 0.85960 0.473 0.0000 0.35673 9.0000 32.81 0.9896 0.9897 1.0000 -0.3578 -0.0037 -0.0090 -0.3554 0.9994 0.0057 0.0056 0.0010 0.0157 -0.3151 0.8651 0.0064 0.0232 -0.8536 -0.2960 2.219765 
555.6830 34.161 109.139 -0.29842 0.85992 0.466 0.0000 0.36183 9.0000 31.49 0.9903 0.9904 1.0000 -0.3632 -0.0033 -0.0092 -0.3608 1.0009 0.0057 0.0058 0.0006 0.0156 -0.3082 0.8656 0.0062 0.0233 -0.8550 -0.2889 2.231204 
552.3365 33.964 108.595 -0.28931 0.85994 0.460 0.0000 0.36789 9.0000 30.22 0.9910 0.9911 1.0000 -0.3695 -0.0029 -0.0091 -0.3673 1.0028 0.0055 0.0056 0.0000 0.0156 -0.2994 0.8657 0.0059 0.0229 -0.8566 -0.2800 2.244722 
549.4636 33.786 108.117 -0.28139 0.86004 0.453 0.0000 0.37347 9.0000 29.85 0.9917 0.9918 1.0000 -0.3754 -0.0027 -0.0093 -0.3731 1.0042 0.0054 0.0053 -0.0005 0.0154 -0.2917 0.8656 0.0059 0.0228 -0.8581 -0.2722 2.256459 
546.5862 33.598 107.633 -0.27325 0.85969 0.447 0.0000 0.37927 9.0000 28.60 0.9922 0.9923 1.0000 -0.3815 -0.0025 -0.0094 -0.3792 1.0057 0.0052 0.0053 -0.0011 0.0151 -0.2837 0.8649 0.0059 0.0227 -0.8594 -0.2644 2.268337 
543.2238 33.353 107.057 -0.26358 0.85906 0.438 0.0000 0.38690 9.0000 27.11 0.9926 0.9928 1.0000 -0.3889 -0.0024 -0.0098 -0.3875 1.0068 0.0054 0.0054 -0.0016 0.0148 -0.2743 0.8638 0.0058 0.0230 -0.8602 -0.2547 2.282378 
540.3370 33.128 106.551 -0.25512 0.85849 0.429 0.0000 0.39395 9.0000 25.43 0.9930 0.9931 1.0000 -0.3958 -0.0022 -0.0103 -0.3951 1.0076 0.0052 0.0060 -0.0021 0.0145 -0.2661 0.8629 0.0056 0.0229 -0.8605 -0.2461 2.294572 
537.4457 32.883 106.039 -0.24648 0.85740 0.422 0.0000 0.40158 9.0000 24.13 0.9934 0.9935 1.0000 -0.4033 -0.0020 -0.0107 -0.4033 1.0084 0.0047 0.0065 -0.0025 0.0139 -0.2578 0.8619 0.0054 0.0233 -0.8601 -0.2373 2.306916 
534.0671 32.570 105.428 -0.23610 0.85555 0.414 0.0000 0.41122 9.0000 22.73 0.9939 0.9940 1.0000 -0.4130 -0.0018 -0.0110 -0.4134 1.0096 0.0042 0.0074 -0.0030 0.0130 -0.2479 0.8604 0.0055 0.0240 -0.8589 -0.2266 2.321510 
531.1663 32.277 104.912 -0.22728 0.85344 0.408 0.0000 0.42023 9.0000 21.45 0.9943 0.9944 1.0000 -0.4221 -0.0017 -0.0114 -0.4227 1.0104 0.0033 0.0081 -0.0033 0.0124 -0.2397 0.8584 0.0054 0.0251 -0.8574 -0.2172 2.334188 
528.2610 31.965 104.387 -0.21834 0.85117 0.404 0.0000 0.42992 9.0000 19.60 0.9941 0.9943 1.0000 -0.4313 -0.0016 -0.0118 -0.4328 1.0099 0.0025 0.0093 -0.0036 0.0119 -0.2311 0.8557 0.0055 0.0262 -0.8551 -0.2078 2.347025 
524.8660 31.578 103.793 -0.20831 0.84854 0.396 0.0000 0.44219 9.0000 18.90 0.9939 0.9940 1.0000 -0.4426 -0.0017 -0.0129 -0.4455 1.0084 0.0009 0.0107 -0.0040 0.0117 -0.2214 0.8523 0.0053 0.0267 -0.8519 -0.1970 2.362206 
521.9510 31.225 103.291 -0.19986 0.84606 0.384 0.0000 0.45352 9.0000 17.28 0.9938 0.9940 1.0000 -0.4530 -0.0017 -0.0138 -0.4572 1.0070 -0.0001 0.0118 -0.0046 0.0116 -0.2133 0.8494 0.0051 0.0266 -0.8486 -0.1878 2.375399 
518.5446 30.775 102.719 -0.19008 0.84219 0.371 0.0000 0.46779 9.0000 15.79 0.9939 0.9941 1.0000 -0.4661 -0.0019 -0.0146 -0.4722 1.0058 -0.0015 0.0136 -0.0050 0.0111 -0.2038 0.8457 0.0047 0.0263 -0.8436 -0.1775 2.391003 
515.6198 30.347 102.247 -0.18178 0.83743 0.366 0.0000 0.48101 9.0000 14.72 0.9940 0.9942 1.0000 -0.4786 -0.0019 -0.0152 -0.4859 1.0052 -0.0027 0.0146 -0.0052 0.0111 -0.1957 0.8409 0.0046 0.0256 -0.8384 -0.1688 2.404566 
512.6906 29.876 101.833 -0.17414 0.83114 0.360 0.0000 0.49519 9.0000 13.13 0.9945 0.9947 1.0000 -0.4922 -0.0022 -0.0159 -0.5011 1.0059 -0.0037 0.0154 -0.0058 0.0106 -0.1885 0.8349 0.0047 0.0255 -0.8322 -0.1608 2.418304 
509.2673 29.295 101.449 -0.16661 0.82267 0.345 0.0000 0.51256 9.0000 12.84 0.9947 0.9948 1.0000 -0.5089 -0.0023 -0.0163 -0.5191 1.0057 -0.0044 0.0168 -0.0062 0.0107 -0.1813 0.8263 0.0044 0.0260 -0.8237 -0.1529 2.434560 
506.3282 28.770 101.236 -0.16172 0.81403 0.342 0.0000 0.52793 9.0000 11.35 0.9954 0.9955 1.0000 -0.5240 -0.0026 -0.0167 -0.5355 1.0070 -0.0050 0.0169 -0.0067 0.0109 -0.1770 0.8182 0.0038 0.0261 -0.8156 -0.1476 2.448692 
503.3844 28.252 101.165 -0.15897 0.80540 0.336 0.0000 0.54330 9.0000 10.42 0.9951 0.9953 1.0000 -0.5386 -0.0030 -0.0175 -0.5511 1.0056 -0.0052 0.0176 -0.0069 0.0110 -0.1745 0.8088 0.0033 0.0264 -0.8065 -0.1444 2.463012 
499.9442 27.636 101.304 -0.15863 0.79361 0.329 0.0000 0.56099 9.0000 8.94 0.9959 0.9961 1.0000 -0.5566 -0.0035 -0.0176 -0.5693 1.0070 -0.0052 0.0188 -0.0077 0.0101 -0.1742 0.7980 0.0025 0.0268 -0.7948 -0.1442 2.479960 
496.9904 27.111 101.615 -0.16092 0.78287 0.325 0.0000 0.57594 9.0000 7.93 0.9971 0.9974 1.0000 -0.5723 -0.0034 -0.0176 -0.5848 1.0090 -0.0052 0.0198 -0.0079 0.0098 -0.1766 0.7885 0.0019 0.0268 -0.7843 -0.1467 2.494700 
494.0320 26.617 102.066 -0.16524 0.77300 0.326 0.0000 0.59063 9.0000 6.80 0.9983 0.9985 1.0000 -0.5879 -0.0033 -0.0177 -0.5991 1.0097 -0.0055 0.0205 -0.0085 0.0085 -0.1812 0.7789 0.0010 0.0279 -0.7747 -0.1509 2.509639 
490.5746 26.095 102.825 -0.17314 0.76053 0.316 0.0000 0.60522 9.0000 5.29 0.9989 0.9992 1.0000 -0.6038 -0.0026 -0.0176 -0.6130 1.0105 -0.0066 0.0206 -0.0095 0.0081 -0.1896 0.7669 0.0001 0.0296 -0.7621 -0.1585 2.527326 
487.6060 25.724 103.610 -0.18189 0.75127 0.317 0.0000 0.61600 9.0000 4.54 0.9982 0.9985 1.0000 -0.6146 -0.0022 -0.0173 -0.6223 1.0079 -0.0084 0.0204 -0.0099 0.0073 -0.1984 0.7574 -0.0008 0.0303 -0.7511 -0.1668 2.542713 
484.6327 25.405 104.477 -0.19183 0.74294 0.314 0.0000 0.62557 9.0000 3.64 0.9984 0.9986 1.0000 -0.6242 -0.0018 -0.0168 -0.6312 1.0067 -0.0079 0.0202 -0.0101 0.0075 -0.2086 0.7492 -0.0010 0.0311 -0.7416 -0.1764 2.558313 
481.1579 25.132 105.561 -0.20442 0.73409 0.317 0.0000 0.63343 9.0000 2.90 0.9972 0.9975 1.0000 -0.6318 -0.0014 -0.0169 -0.6372 1.0034 -0.0077 0.0193 -0.0105 0.0073 -0.2207 0.7395 -0.0017 0.0311 -0.7312 -0.1889 2.576788 
478.1744 24.952 106.492 -0.21524 0.72701 0.314 0.0000 0.63837 9.0000 2.49 0.9978 0.9981 1.0000 -0.6374 -0.0008 -0.0169 -0.6421 1.0044 -0.0072 0.0190 -0.0104 0.0066 -0.2313 0.7329 -0.0020 0.0303 -0.7243 -0.2001 2.592865 
475.1861 24.837 107.436 -0.22640 0.72085 0.314 0.0000 0.64137 9.0000 2.36 0.9995 0.9998 1.0000 -0.6417 -0.0003 -0.0171 -0.6461 1.0079 -0.0061 0.0188 -0.0103 0.0070 -0.2428 0.7289 -0.0020 0.0303 -0.7185 -0.2118 2.609171 
471.6937 24.737 108.402 -0.23798 0.71530 0.308 0.0000 0.64445 9.0000 2.38 0.9991 0.9993 1.0000 -0.6444 0.0001 -0.0178 -0.6485 1.0063 -0.0032 0.0187 -0.0099 0.0072 -0.2536 0.7233 -0.0028 0.0310 -0.7118 -0.2238 2.628489 
468.6950 24.699 109.248 -0.24812 0.71060 0.316 0.0000 0.64518 9.0000 2.25 1.0016 1.0019 1.0000 -0.6469 0.0008 -0.0179 -0.6511 1.0118 -0.0030 0.0177 -0.0096 0.0076 -0.2644 0.7206 -0.0031 0.0314 -0.7090 -0.2348 2.645306 
465.6915 24.703 110.041 -0.25776 0.70662 0.315 0.0000 0.64454 9.0000 2.20 1.0033 1.0035 1.0000 -0.6471 0.0014 -0.0188 -0.6522 1.0159 -0.0023 0.0160 -0.0090 0.0085 -0.2742 0.7177 -0.0032 0.0319 -0.7068 -0.2454 2.662367 
462.1813 24.701 110.783 -0.26712 0.70383 0.320 0.0000 0.64518 9.0000 2.08 1.0051 1.0053 1.0000 -0.6485 0.0014 -0.0195 -0.6538 1.0185 -0.0033 0.0155 -0.0092 0.0088 -0.2826 0.7168 -0.0033 0.0324 -0.7040 -0.2566 2.682588 
459.1674 24.717 111.400 -0.27500 0.70170 0.318 0.0000 0.64517 9.0000 1.92 1.0096 1.0099 1.0000 -0.6510 0.0023 -0.0200 -0.6568 1.0271 -0.0047 0.0145 -0.0093 0.0099 -0.2913 0.7178 -0.0032 0.0334 -0.7046 -0.2661 2.700196 
456.1485 24.735 111.973 -0.28210 0.69916 0.311 0.0000 0.64462 9.0000 1.83 1.0121 1.0124 1.0000 -0.6518 0.0032 -0.0205 -0.6582 1.0322 -0.0084 0.0135 -0.0103 0.0106 -0.2992 0.7180 -0.0033 0.0354 -0.7029 -0.2740 2.718066 
452.6203 24.741 112.526 -0.28884 0.69642 0.321 0.0000 0.64434 9.0000 1.73 1.0116 1.0119 1.0000 -0.6498 0.0027 -0.0206 -0.6591 1.0313 -0.0116 0.0147 -0.0116 0.0105 -0.3052 0.7163 -0.0024 0.0352 -0.6983 -0.2815 2.739254 
449.5909 24.760 112.962 -0.29428 0.69457 0.325 0.0000 0.64380 9.0000 1.62 1.0104 1.0107 1.0000 -0.6467 0.0017 -0.0212 -0.6595 1.0290 -0.0113 0.0180 -0.0135 0.0110 -0.3091 0.7151 -0.0010 0.0333 -0.6942 -0.2880 2.757711 
446.5565 24.786 113.350 -0.29916 0.69299 0.338 0.0000 0.64303 9.0000 1.53 1.0082 1.0085 1.0000 -0.6423 0.0003 -0.0220 -0.6596 1.0247 -0.0095 0.0230 -0.0160 0.0115 -0.3118 0.7136 0.0008 0.0302 -0.6895 -0.2939 2.776450 
443.0101 24.824 113.741 -0.30421 0.69168 0.336 0.0000 0.64201 9.0000 1.38 1.0046 1.0049 1.0000 -0.6357 -0.0019 -0.0232 -0.6595 1.0174 -0.0056 0.0310 -0.0197 0.0124 -0.3134 0.7119 0.0035 0.0251 -0.6835 -0.3004 2.798676 
439.9650 24.856 113.982 -0.30724 0.69065 0.334 0.0000 0.64080 9.0000 1.34 1.0004 1.0008 1.0000 -0.6293 -0.0040 -0.0243 -0.6585 1.0096 -0.0015 0.0381 -0.0228 0.0131 -0.3131 0.7099 0.0058 0.0204 -0.6781 -0.3043 2.818047 

# MINIMA:
439.9650 24.699 101.165 -0.73587 0.60852 0.308 0.0000 0.12373 9.0000 1.34 0.9362 0.9370 1.0000 -0.6518 -0.0282 -0.0243 -0.6596 0.9125 -0.0116 -0.0131 -0.0228 0.0066 -0.6935 0.5784 -0.0129 -0.0089 -0.8605 -0.7305 1.242747 

# MAXIMA:
997.6623 41.285 140.163 -0.15863 0.86004 0.952 0.0000 0.64518 9.0000 58.65 1.0121 1.0124 1.0000 -0.1093 0.0032 0.0257 -0.1204 1.0322 0.0516 0.0381 0.0297 0.0514 -0.1742 0.8657 0.0098 0.0354 -0.5797 -0.1442 2.818047 

# PEAKS:

# END SPECTRUM

